# Methylene blue with anatase (0.73%) brookite (0.27%)
# Wavelength(nm) Absorbance(a.u.)
#	A.M. Anatasa-Brooquita 195 min	A.M. Anatasa-Brooquita 120 min	A.M. Anatasa-Brooquita 90 min	A.M. Anatasa-Brooquita 60 min	A.M. Anatasa-Brooquita 30 min	A.M. Anatasa-Brooquita 15 min	A.M. Anatasa-Brooquita 5 min	A.M. Anatasa-Brooquita 0 min
199.408	-0.01722	-0.00885	-0.02307	-0.03632	-0.01333	-0.01691	-0.00838	-0.00441
200.004	0.00757	-0.00268	0.00158	0.02046	-0.00868	0.01299	0.00405	0.00733
200.6	-0.00562	-0.00347	-0.00124	0.01925	0.00554	-0.00623	-0.00193	-0.00791
201.196	6.23169E-4	-0.01122	-0.01372	0.00659	-0.0038	-0.01084	-0.0068	0.00454
201.792	-0.00137	-0.01183	-0.00569	0.01453	0.0053	-0.00667	-0.00667	0.006
202.388	-0.0262	-0.01997	-0.01605	-0.0138	-0.01497	-0.00613	-0.02507	-0.00478
202.984	-0.00766	-0.01275	-0.03186	-0.01717	-0.00937	-0.00393	-0.02252	-0.01588
203.58	-0.01532	-0.02148	-0.02007	-0.01196	-0.01428	-0.03027	-0.03356	-0.03448
204.176	-0.02244	-0.02343	-0.02757	-0.01663	-0.01113	-0.01655	-0.01832	-0.0137
204.772	-0.0148	-0.03086	-0.01963	-0.01151	-0.0077	-0.02715	-0.00467	-0.00786
205.368	-0.00592	-0.01046	-0.00876	3.38773E-4	-0.00477	-0.00648	-0.0065	-0.00357
205.964	-0.00457	-0.00967	-0.00681	0.00327	-0.00314	-0.00554	-0.00529	-0.00294
206.56	-0.00496	-0.00969	-0.00703	0.00255	-0.00267	-0.00641	-0.0057	-0.00356
207.155	-0.0047	-0.0099	-0.00781	0.00186	-0.00329	-0.00664	-0.00587	-0.00281
207.751	-0.005	-0.01053	-0.00753	0.00111	-0.00337	-0.00707	-0.00627	-0.00299
208.347	-0.0056	-0.01024	-0.00716	1.2803E-4	-0.00412	-0.00647	-0.00554	-0.00331
208.943	-0.00497	-0.0099	-0.00692	-4.61323E-4	-0.00408	-0.00759	-0.00488	-0.00296
209.538	-0.00557	-0.01062	-0.00579	1.8358E-5	-0.00383	-0.00819	-0.00443	-0.00229
210.134	-0.00468	-0.01008	-0.00574	4.29357E-4	-0.00389	-0.00731	-0.00313	-0.0015
210.73	-0.00467	-0.00964	-0.00512	8.95422E-4	-0.00331	-0.00725	-0.00237	-0.00107
211.325	-0.00462	-0.0084	-0.00454	0.0012	-0.00339	-0.0065	-0.00279	-1.01756E-4
211.921	-0.00448	-0.00955	-0.00504	0.00109	-0.00336	-0.00732	-0.00256	-8.45597E-4
212.516	-0.00401	-0.00943	-0.00466	0.00124	-0.00318	-0.00666	-0.00213	-8.6277E-4
213.112	-0.00352	-0.00839	-0.00369	0.00231	-0.00205	-0.00667	-0.00216	-5.99079E-5
213.707	-0.00399	-0.00905	-0.00394	0.00196	-0.00228	-0.0073	-0.00247	5.06166E-4
214.303	-0.00408	-0.00914	-0.00428	0.00104	-0.00209	-0.00729	-0.00263	2.12903E-4
214.898	-0.00345	-0.0088	-0.00318	0.00152	-0.00182	-0.00617	-0.00201	8.19051E-4
215.494	-0.00344	-0.0088	-0.00399	5.06302E-5	-0.00159	-0.00664	-0.00231	0.00129
216.089	-0.00378	-0.00828	-0.00351	-4.35481E-5	-6.93917E-4	-0.00723	-0.00294	0.00168
216.684	-0.00449	-0.00818	-0.0035	2.82453E-5	-5.62451E-4	-0.00711	-0.00282	0.00264
217.28	-0.00544	-0.00817	-0.0032	8.49971E-4	1.47026E-4	-0.0078	-0.00234	0.00246
217.875	-0.00535	-0.00739	-0.0033	-1.15466E-4	3.80639E-5	-0.00823	-0.0036	0.00159
218.47	-0.00638	-0.00883	-0.00395	-0.00176	-9.41224E-4	-0.0091	-0.00477	9.64594E-4
219.066	-0.00571	-0.00853	-0.00282	-0.0016	-7.16197E-4	-0.00959	-0.00422	0.00197
219.661	-0.00713	-0.00879	-0.00245	-0.00182	-0.00102	-0.00951	-0.00405	0.00158
220.256	-0.00791	-0.00842	-0.00282	-0.00224	-0.00102	-0.00944	-0.00442	0.00113
220.851	-0.00729	-0.00875	-0.00286	-0.00165	5.03993E-5	-0.0092	-0.00438	0.0018
221.446	-0.00705	-0.00737	-0.00144	-5.15571E-5	0.00117	-0.00813	-0.00367	0.00148
222.042	-0.00702	-0.00627	-0.0016	1.61789E-4	0.00184	-0.00738	-0.00383	0.00138
222.637	-0.00765	-0.00599	-9.1584E-4	5.45582E-4	0.00199	-0.00739	-0.00404	0.00283
223.232	-0.00701	-0.00643	-5.81445E-4	1.78428E-4	0.00173	-0.0078	-0.00458	0.00287
223.827	-0.00677	-0.00585	2.30772E-4	0.00121	0.00196	-0.007	-0.00377	0.00267
224.422	-0.00622	-0.00408	0.00135	0.00187	0.00241	-0.00593	-0.00329	0.00424
225.017	-0.00629	-0.00424	0.00161	0.00159	0.00246	-0.00609	-0.00326	0.0048
225.612	-0.00679	-0.00412	0.00191	0.00149	0.00218	-0.00637	-0.00244	0.00454
226.207	-0.00669	-0.00409	0.00197	0.00117	0.00238	-0.00544	-0.00169	0.00471
226.802	-0.00673	-0.00314	0.00385	0.0022	0.003	-0.00579	-8.15096E-4	0.00548
227.397	-0.00723	-0.00375	0.0036	0.00191	0.00271	-0.00697	-0.00128	0.00477
227.991	-0.00693	-0.00235	0.00491	0.00295	0.0026	-0.00652	-0.00104	0.00483
228.586	-0.00748	-0.00309	0.00482	0.00288	0.00226	-0.00736	-0.0019	0.00399
229.181	-0.00663	-0.00259	0.00495	0.00328	0.00225	-0.00726	-0.00132	0.00354
229.776	-0.00643	-0.00209	0.00528	0.00335	0.00218	-0.00615	-0.00132	0.00357
230.371	-0.00564	-0.00163	0.00624	0.00446	0.00292	-0.00506	-3.25004E-4	0.00402
230.965	-0.00609	-9.25183E-4	0.00643	0.00514	0.00303	-0.00439	2.552E-4	0.00465
231.56	-0.00641	-4.62323E-4	0.00553	0.00521	0.00324	-0.0033	-1.25485E-4	0.0043
232.155	-0.00461	8.28796E-4	0.00617	0.00567	0.00322	-0.00267	1.69828E-4	0.00393
232.749	-0.00364	0.00251	0.00725	0.00684	0.00417	-0.00207	3.53925E-4	0.00459
233.344	-0.00355	0.0031	0.00813	0.00727	0.00414	-0.00236	-1.07072E-4	0.00441
233.939	-0.00285	0.00328	0.00761	0.0076	0.0042	-0.0015	4.07554E-4	0.00529
234.533	-0.002	0.00374	0.00874	0.00865	0.0041	-0.00183	0.00116	0.00572
235.128	-0.00113	0.0042	0.00931	0.00901	0.00496	-0.0013	0.00159	0.00427
235.722	9.12043E-4	0.00704	0.01136	0.01148	0.0069	4.99502E-4	0.00363	0.00574
236.317	0.00171	0.00779	0.01225	0.01132	0.00733	6.16968E-4	0.00448	0.00615
236.911	0.0035	0.00913	0.01397	0.01265	0.00885	0.00161	0.00502	0.00563
237.506	0.00505	0.01141	0.01518	0.01363	0.00914	0.00253	0.00514	0.00577
238.1	0.0078	0.01382	0.01733	0.01585	0.01064	0.00522	0.00643	0.0069
238.694	0.01021	0.01684	0.0185	0.01848	0.01212	0.00627	0.00724	0.00791
239.289	0.01249	0.01774	0.01868	0.01896	0.01253	0.008	0.00743	0.00817
239.883	0.01488	0.02018	0.02073	0.02093	0.01381	0.00944	0.00818	0.00937
240.477	0.01658	0.02096	0.02155	0.02304	0.01526	0.01022	0.00953	0.01
241.072	0.01884	0.02245	0.0235	0.02415	0.01673	0.01148	0.01125	0.01074
241.666	0.02218	0.02572	0.02609	0.02583	0.01977	0.0131	0.01214	0.01153
242.26	0.02593	0.02773	0.02885	0.02851	0.02135	0.01422	0.01317	0.01268
242.854	0.02916	0.03089	0.03128	0.03094	0.02408	0.01559	0.01424	0.01418
243.449	0.0335	0.03357	0.03466	0.03379	0.026	0.0175	0.01527	0.01504
244.043	0.0374	0.03771	0.03889	0.03707	0.02766	0.01932	0.01741	0.01594
244.637	0.04139	0.04047	0.04238	0.04109	0.03156	0.0215	0.01967	0.01767
245.231	0.04556	0.04326	0.04581	0.04372	0.03368	0.02335	0.02197	0.0189
245.825	0.0487	0.046	0.04802	0.04595	0.03601	0.02553	0.02373	0.01922
246.419	0.05316	0.04934	0.05189	0.04852	0.03813	0.02706	0.02435	0.01982
247.013	0.05655	0.05235	0.05537	0.05126	0.0408	0.02895	0.02598	0.02048
247.607	0.0619	0.05707	0.05957	0.05495	0.04347	0.03188	0.02889	0.02298
248.201	0.06624	0.06022	0.06349	0.05744	0.0467	0.03418	0.02965	0.02393
248.795	0.07017	0.06348	0.06599	0.06091	0.04912	0.03628	0.03065	0.02462
249.389	0.07416	0.06698	0.06974	0.06392	0.05139	0.03861	0.03275	0.02647
249.983	0.07899	0.07068	0.0738	0.06797	0.05502	0.0408	0.03505	0.02823
250.576	0.08347	0.07396	0.07698	0.06993	0.05716	0.04188	0.0359	0.02887
251.17	0.08768	0.077	0.08062	0.07227	0.05944	0.04364	0.03728	0.03053
251.764	0.09392	0.08351	0.08586	0.07727	0.06364	0.04666	0.04013	0.03307
252.358	0.09851	0.08728	0.08982	0.08124	0.06678	0.04926	0.04135	0.0341
252.952	0.10223	0.09149	0.09338	0.08425	0.06953	0.05168	0.04322	0.03555
253.545	0.10552	0.09484	0.09676	0.08792	0.07124	0.05399	0.04468	0.03697
254.139	0.10979	0.09772	0.10013	0.09055	0.07332	0.05572	0.04623	0.03736
254.733	0.11267	0.10081	0.10211	0.09208	0.07564	0.05702	0.04754	0.03788
255.326	0.11774	0.104	0.10527	0.09568	0.07787	0.05956	0.04945	0.03927
255.92	0.12194	0.10788	0.10816	0.09814	0.08163	0.06134	0.05155	0.03993
256.513	0.12514	0.10982	0.11001	0.10001	0.08407	0.06271	0.0524	0.04116
257.107	0.12794	0.11249	0.11277	0.10208	0.08622	0.06467	0.05316	0.04211
257.7	0.13125	0.11625	0.11544	0.10441	0.08747	0.06623	0.05387	0.04249
258.294	0.13789	0.12163	0.12028	0.10896	0.09168	0.06878	0.05638	0.04533
258.887	0.1421	0.12498	0.12327	0.11187	0.09433	0.07115	0.05806	0.04601
259.481	0.14722	0.1284	0.12611	0.11437	0.09685	0.0732	0.05931	0.04757
260.074	0.15065	0.13135	0.12909	0.1174	0.09863	0.0745	0.05975	0.04835
260.668	0.15394	0.13353	0.13123	0.11982	0.09988	0.07576	0.06033	0.0482
261.261	0.15799	0.13804	0.13511	0.12334	0.10285	0.07805	0.06179	0.04964
261.854	0.16102	0.14084	0.1376	0.12593	0.10538	0.07938	0.06287	0.04982
262.448	0.16543	0.14404	0.13985	0.12847	0.1076	0.08132	0.06371	0.05057
263.041	0.1685	0.14759	0.14252	0.13094	0.1101	0.08275	0.06486	0.05205
263.634	0.17231	0.14988	0.14496	0.13361	0.112	0.08414	0.06509	0.05164
264.227	0.17381	0.15056	0.14613	0.13383	0.11301	0.08453	0.06474	0.05093
264.82	0.17799	0.15404	0.14881	0.13566	0.1153	0.08611	0.0665	0.05231
265.414	0.18237	0.15624	0.15167	0.13764	0.11657	0.08782	0.06758	0.05217
266.007	0.18794	0.15992	0.15494	0.14043	0.11971	0.08943	0.0692	0.05339
266.6	0.19119	0.16311	0.15762	0.14365	0.12105	0.09128	0.07023	0.05483
267.193	0.19547	0.16725	0.16142	0.14644	0.1235	0.09297	0.07194	0.05561
267.786	0.198	0.17038	0.16418	0.14807	0.12435	0.09361	0.07234	0.05494
268.379	0.20164	0.17397	0.16676	0.15099	0.12598	0.09512	0.07337	0.0558
268.972	0.20721	0.17904	0.17091	0.15439	0.12794	0.09797	0.07479	0.05649
269.565	0.21045	0.18234	0.17313	0.15569	0.12901	0.09856	0.07559	0.05643
270.158	0.21565	0.18577	0.17628	0.15884	0.13159	0.10029	0.0775	0.05677
270.751	0.21803	0.1877	0.1778	0.15999	0.13231	0.1005	0.0773	0.05605
271.344	0.22236	0.19207	0.18087	0.1632	0.13366	0.10162	0.07872	0.0566
271.936	0.22627	0.19578	0.18462	0.16602	0.13652	0.10338	0.08039	0.05711
272.529	0.23135	0.19944	0.18728	0.16854	0.13903	0.10508	0.08172	0.05758
273.122	0.23531	0.20264	0.18995	0.17085	0.14095	0.10635	0.08311	0.05838
273.715	0.23885	0.20478	0.19125	0.17224	0.14154	0.10626	0.08405	0.0582
274.307	0.24218	0.20736	0.19357	0.17444	0.14212	0.10721	0.08529	0.05898
274.9	0.24612	0.2105	0.19613	0.17644	0.14355	0.10819	0.08621	0.0595
275.493	0.24945	0.21202	0.19822	0.17798	0.14446	0.10937	0.08682	0.05927
276.086	0.25389	0.21587	0.20124	0.18013	0.14673	0.1109	0.08835	0.06064
276.678	0.25748	0.21887	0.20378	0.18223	0.14793	0.11237	0.08986	0.06118
277.271	0.26027	0.2209	0.20518	0.18348	0.14899	0.11294	0.0901	0.0613
277.863	0.26413	0.22453	0.20717	0.18575	0.15064	0.11394	0.09057	0.06185
278.456	0.26703	0.22704	0.20929	0.18667	0.1517	0.11476	0.09124	0.06214
279.048	0.27186	0.23033	0.21206	0.18897	0.15342	0.1159	0.09217	0.06299
279.641	0.27587	0.23282	0.2137	0.19073	0.15503	0.11728	0.09297	0.06408
280.233	0.28038	0.23598	0.21665	0.19232	0.1563	0.1185	0.09391	0.06492
280.826	0.28465	0.23856	0.21915	0.19398	0.15825	0.11937	0.09425	0.06597
281.418	0.28878	0.24086	0.22099	0.19566	0.15979	0.11968	0.09475	0.06628
282.01	0.29435	0.24411	0.22428	0.19846	0.16216	0.12144	0.09599	0.06787
282.603	0.29869	0.24684	0.22642	0.20044	0.16327	0.1222	0.09617	0.06899
283.195	0.30292	0.24926	0.22883	0.20237	0.16476	0.12301	0.09714	0.07064
283.787	0.30706	0.25149	0.2305	0.20386	0.16639	0.12403	0.09807	0.07148
284.38	0.3111	0.254	0.23253	0.20518	0.16719	0.12479	0.09836	0.07289
284.972	0.31508	0.2571	0.23458	0.20674	0.16867	0.12581	0.09909	0.07375
285.564	0.31805	0.25936	0.23633	0.20818	0.16921	0.12668	0.09998	0.07448
286.156	0.3222	0.26183	0.23811	0.20932	0.1707	0.12765	0.10033	0.07588
286.748	0.32563	0.26408	0.23964	0.21	0.17143	0.12845	0.10039	0.07641
287.34	0.32865	0.26513	0.24112	0.21083	0.17171	0.12891	0.10082	0.07665
287.932	0.33043	0.2669	0.24209	0.21173	0.17215	0.12844	0.10078	0.07652
288.524	0.33243	0.26799	0.24301	0.21207	0.17243	0.12817	0.10082	0.07717
289.116	0.33498	0.26924	0.24427	0.21335	0.17233	0.12797	0.10063	0.07725
289.708	0.33716	0.2705	0.2452	0.21369	0.17278	0.12795	0.10038	0.07733
290.3	0.33896	0.27189	0.24581	0.21408	0.17282	0.12783	0.1005	0.07724
290.892	0.34105	0.27301	0.24641	0.21483	0.17279	0.12799	0.10012	0.07687
291.484	0.3421	0.27338	0.24675	0.21479	0.17249	0.12715	0.09949	0.07572
292.076	0.34298	0.27413	0.24791	0.21543	0.17246	0.12655	0.099	0.07551
292.668	0.34409	0.2746	0.24819	0.21565	0.17234	0.12614	0.09841	0.07528
293.26	0.3444	0.27468	0.24813	0.21548	0.17176	0.12576	0.0984	0.07463
293.852	0.34478	0.27451	0.24835	0.21538	0.17148	0.12508	0.09784	0.07367
294.443	0.34434	0.27457	0.24793	0.215	0.17046	0.12393	0.09699	0.07299
295.035	0.34438	0.2744	0.24778	0.21441	0.16982	0.12349	0.09649	0.07217
295.627	0.3433	0.27412	0.24743	0.21348	0.16842	0.12295	0.09573	0.07098
296.218	0.3426	0.27353	0.24698	0.2125	0.16739	0.12259	0.0948	0.07015
296.81	0.34137	0.27265	0.24588	0.21151	0.16606	0.12136	0.09395	0.0687
297.402	0.34048	0.27152	0.24514	0.21016	0.16461	0.12	0.09269	0.06745
297.993	0.33921	0.27068	0.24447	0.20914	0.16376	0.11898	0.0914	0.06609
298.585	0.33764	0.26924	0.24357	0.20794	0.16259	0.11762	0.09027	0.06436
299.176	0.33514	0.26749	0.24204	0.20645	0.16132	0.11587	0.08876	0.06294
299.768	0.3331	0.26672	0.2405	0.20541	0.16067	0.11487	0.08774	0.06207
300.359	0.33198	0.26545	0.23949	0.20424	0.15963	0.11415	0.0869	0.0609
300.951	0.32998	0.26357	0.23786	0.2029	0.15805	0.11298	0.08535	0.05905
301.542	0.32786	0.26198	0.23614	0.20151	0.15691	0.11172	0.08419	0.05774
302.133	0.32566	0.26056	0.23469	0.20031	0.15573	0.11055	0.08334	0.05672
302.725	0.32316	0.25841	0.23291	0.19851	0.15447	0.10905	0.08173	0.05533
303.316	0.32001	0.25658	0.23086	0.19674	0.15296	0.10793	0.08064	0.05395
303.907	0.31703	0.25431	0.22873	0.19477	0.15116	0.10656	0.07925	0.05283
304.499	0.31354	0.2516	0.22618	0.19252	0.14949	0.1047	0.07799	0.05123
305.09	0.31008	0.24921	0.22371	0.1908	0.14798	0.10339	0.07686	0.04988
305.681	0.30662	0.24685	0.22156	0.18881	0.14612	0.10188	0.07531	0.04864
306.272	0.30282	0.24409	0.21912	0.18641	0.14432	0.10038	0.07385	0.0472
306.863	0.29918	0.24129	0.21679	0.18417	0.14267	0.09922	0.07254	0.04599
307.455	0.29507	0.23843	0.21414	0.18182	0.14089	0.09744	0.07093	0.04419
308.046	0.29121	0.23557	0.21175	0.17972	0.13952	0.09592	0.06971	0.04302
308.637	0.28709	0.23244	0.20907	0.17761	0.13775	0.09415	0.06811	0.04142
309.228	0.28246	0.22928	0.20633	0.17518	0.13586	0.09244	0.06658	0.04011
309.819	0.27785	0.22614	0.2036	0.17304	0.13409	0.09092	0.0653	0.03899
310.41	0.27293	0.22272	0.20066	0.17052	0.13201	0.08907	0.0637	0.0376
311.001	0.26859	0.21991	0.19793	0.16833	0.13031	0.08787	0.06253	0.03671
311.591	0.2641	0.21693	0.19536	0.16628	0.12838	0.08649	0.06142	0.03546
312.182	0.2594	0.21328	0.19259	0.16381	0.12613	0.08471	0.06005	0.03405
312.773	0.25393	0.21004	0.18971	0.16145	0.12404	0.08292	0.0586	0.03267
313.364	0.24896	0.207	0.18712	0.15894	0.12222	0.08165	0.05757	0.03183
313.955	0.24383	0.20354	0.18421	0.15619	0.12029	0.08	0.05637	0.03071
314.546	0.23847	0.19997	0.18162	0.15387	0.11801	0.07826	0.05497	0.02946
315.136	0.23307	0.19608	0.17873	0.15161	0.116	0.0765	0.05354	0.02853
315.727	0.22789	0.1925	0.17592	0.149	0.1139	0.07481	0.05222	0.02766
316.318	0.22252	0.18883	0.17294	0.14648	0.11168	0.07331	0.05053	0.02649
316.908	0.21737	0.18534	0.16991	0.14389	0.1094	0.07181	0.04917	0.02547
317.499	0.21164	0.18145	0.16667	0.14095	0.10701	0.06973	0.04736	0.02389
318.089	0.20578	0.17757	0.16362	0.13824	0.10487	0.06793	0.04589	0.0228
318.68	0.20066	0.17401	0.16048	0.13586	0.10262	0.06632	0.04463	0.02181
319.271	0.19512	0.17037	0.15739	0.1333	0.1005	0.06441	0.04332	0.02054
319.861	0.18969	0.16684	0.15422	0.13079	0.09835	0.06287	0.04198	0.01973
320.451	0.18398	0.16339	0.15098	0.12805	0.09604	0.06091	0.04035	0.01846
321.042	0.17878	0.16019	0.14809	0.12554	0.09388	0.0594	0.03915	0.01757
321.632	0.17348	0.1569	0.14533	0.1233	0.09185	0.05796	0.03776	0.01649
322.223	0.16841	0.15372	0.14227	0.12068	0.0899	0.05633	0.0364	0.01539
322.813	0.16366	0.15068	0.13947	0.11845	0.08823	0.05496	0.03521	0.01438
323.403	0.15876	0.14724	0.13683	0.11609	0.08621	0.05336	0.03393	0.01319
323.994	0.15384	0.14407	0.13406	0.11358	0.08426	0.05175	0.03262	0.01215
324.584	0.14937	0.14114	0.13175	0.11137	0.08257	0.05051	0.03144	0.01131
325.174	0.145	0.13789	0.1291	0.10906	0.08085	0.0492	0.0302	0.0105
325.764	0.14067	0.13503	0.12652	0.10693	0.079	0.04768	0.02915	0.00952
326.354	0.13619	0.1321	0.12392	0.10492	0.0773	0.04624	0.02799	0.00851
326.944	0.13197	0.12919	0.12133	0.10253	0.07563	0.04496	0.02682	0.00747
327.535	0.12785	0.12644	0.119	0.10031	0.0738	0.04376	0.02559	0.00642
328.125	0.12399	0.12372	0.11675	0.09848	0.07238	0.04253	0.02452	0.00578
328.715	0.12021	0.12118	0.11438	0.09654	0.07089	0.04137	0.02377	0.00486
329.305	0.11626	0.11886	0.11227	0.09473	0.06959	0.04035	0.02278	0.00416
329.895	0.11278	0.11639	0.11018	0.093	0.06803	0.0392	0.02186	0.00335
330.485	0.10932	0.11402	0.10813	0.09123	0.06677	0.03823	0.02106	0.00263
331.074	0.10573	0.11167	0.10612	0.08947	0.06539	0.03738	0.02009	0.002
331.664	0.10237	0.10935	0.10394	0.08787	0.06403	0.03632	0.01914	0.00113
332.254	0.0994	0.10729	0.10215	0.0864	0.06293	0.03554	0.01857	6.02659E-4
332.844	0.09643	0.10495	0.1004	0.08493	0.06175	0.03472	0.01788	-2.59931E-5
333.434	0.09364	0.1028	0.09854	0.08332	0.06064	0.03373	0.01705	-6.93673E-4
334.024	0.0907	0.10066	0.09659	0.08155	0.05933	0.0327	0.0163	-0.00134
334.613	0.08797	0.09834	0.09485	0.08009	0.05807	0.03185	0.01555	-0.0019
335.203	0.08515	0.09619	0.09301	0.07855	0.05667	0.03091	0.01495	-0.00235
335.793	0.08267	0.09425	0.09121	0.07713	0.05549	0.03008	0.01428	-0.00266
336.382	0.08007	0.0921	0.08949	0.07571	0.05434	0.02938	0.01365	-0.00322
336.972	0.07754	0.09039	0.08769	0.07439	0.05329	0.02882	0.01326	-0.00352
337.561	0.07498	0.08862	0.08598	0.07307	0.05204	0.02803	0.01254	-0.00419
338.151	0.07235	0.08675	0.08417	0.07172	0.05096	0.02743	0.01166	-0.00483
338.74	0.07013	0.08499	0.08271	0.07023	0.04978	0.0268	0.01094	-0.00536
339.33	0.06761	0.08304	0.08105	0.06881	0.04888	0.02603	0.01038	-0.00592
339.919	0.06555	0.08139	0.07943	0.06761	0.04761	0.02536	0.00989	-0.00651
340.509	0.06322	0.0797	0.07792	0.06623	0.04648	0.02458	0.00928	-0.00716
341.098	0.06118	0.07831	0.07654	0.06505	0.04566	0.02392	0.00875	-0.00761
341.688	0.05909	0.0765	0.07516	0.06371	0.04455	0.0232	0.00819	-0.00823
342.277	0.05735	0.07529	0.07386	0.06271	0.04403	0.02295	0.00793	-0.00839
342.866	0.05549	0.07381	0.07241	0.06151	0.04294	0.02217	0.00731	-0.00892
343.455	0.05376	0.07244	0.0712	0.06053	0.04218	0.02159	0.00693	-0.00912
344.045	0.05203	0.07104	0.07017	0.05923	0.04127	0.02106	0.0065	-0.00934
344.634	0.05018	0.06953	0.06895	0.05807	0.04033	0.02043	0.00584	-0.00978
345.223	0.04847	0.06829	0.06778	0.05709	0.03947	0.01985	0.00534	-0.01013
345.812	0.04679	0.06692	0.06664	0.05598	0.0387	0.01932	0.0049	-0.01052
346.401	0.0451	0.06552	0.06543	0.05511	0.03799	0.01879	0.00451	-0.01083
346.99	0.04344	0.06433	0.06436	0.05428	0.03722	0.01842	0.00408	-0.01125
347.579	0.042	0.063	0.06334	0.0532	0.03637	0.01792	0.00358	-0.0118
348.168	0.04031	0.06182	0.06231	0.05215	0.03559	0.0176	0.00299	-0.01227
348.757	0.03915	0.06088	0.06124	0.05135	0.03496	0.01708	0.0026	-0.01255
349.346	0.03786	0.05964	0.06032	0.05045	0.03436	0.01655	0.00219	-0.01285
349.935	0.03669	0.05877	0.05955	0.04975	0.03401	0.01617	0.00207	-0.01298
350.524	0.03528	0.05756	0.05875	0.04871	0.03354	0.01554	0.00185	-0.01317
351.113	0.03419	0.05668	0.05782	0.04824	0.03309	0.01519	0.00163	-0.0133
351.702	0.03314	0.05576	0.05694	0.04767	0.03238	0.0148	0.00142	-0.01365
352.291	0.03177	0.05486	0.05601	0.04682	0.03209	0.01451	0.00122	-0.01393
352.879	0.03035	0.05365	0.05491	0.0459	0.03147	0.0139	9.21229E-4	-0.0143
353.468	0.02923	0.05258	0.054	0.04516	0.03087	0.01367	6.02702E-4	-0.01449
354.057	0.02828	0.05167	0.05316	0.04456	0.03043	0.01334	2.61676E-4	-0.01476
354.646	0.02701	0.05062	0.0524	0.04388	0.0296	0.0131	-2.02234E-4	-0.01503
355.234	0.02603	0.04992	0.05173	0.04329	0.02913	0.01283	-2.58102E-4	-0.01523
355.823	0.02506	0.04912	0.05095	0.0426	0.02872	0.01246	-6.05501E-4	-0.01548
356.411	0.02387	0.04823	0.05008	0.04193	0.02818	0.01216	-0.00104	-0.01575
357	0.02295	0.04744	0.04949	0.04136	0.02774	0.01185	-0.00124	-0.01609
357.588	0.02232	0.04683	0.04883	0.04092	0.02742	0.01171	-0.0013	-0.01619
358.177	0.0215	0.04626	0.04834	0.04049	0.02711	0.01156	-0.00146	-0.01629
358.765	0.02083	0.04581	0.04778	0.03996	0.02683	0.0114	-0.00166	-0.01658
359.354	0.02008	0.04526	0.0471	0.03943	0.02648	0.0111	-0.0018	-0.01667
359.942	0.01921	0.04477	0.04655	0.03905	0.02622	0.01072	-0.0021	-0.01676
360.531	0.01859	0.04419	0.04602	0.03862	0.026	0.01042	-0.00212	-0.01679
361.119	0.01761	0.04344	0.04548	0.03804	0.02558	0.01009	-0.00243	-0.01708
361.707	0.01672	0.0429	0.0449	0.03739	0.02509	0.00974	-0.0028	-0.01753
362.295	0.01616	0.04226	0.04442	0.03701	0.02462	0.00962	-0.00312	-0.01765
362.884	0.01563	0.04188	0.04403	0.03672	0.02422	0.00938	-0.00327	-0.0178
363.472	0.01497	0.04128	0.04354	0.03628	0.02389	0.00909	-0.00356	-0.01786
364.06	0.01443	0.04091	0.0432	0.03596	0.02366	0.00894	-0.00379	-0.01794
364.648	0.01403	0.04057	0.04294	0.03564	0.02337	0.00863	-0.00397	-0.0179
365.236	0.01372	0.04027	0.04281	0.03542	0.02332	0.00856	-0.00408	-0.01797
365.824	0.01325	0.04004	0.04259	0.03515	0.02302	0.00834	-0.00423	-0.01803
366.412	0.01278	0.03963	0.04219	0.03477	0.02266	0.00805	-0.00437	-0.0181
367	0.01248	0.03925	0.04184	0.03447	0.02254	0.00777	-0.00436	-0.01821
367.588	0.01199	0.03879	0.04147	0.03408	0.0223	0.00748	-0.00466	-0.01839
368.176	0.0115	0.03843	0.04118	0.03374	0.02199	0.00724	-0.00467	-0.0186
368.764	0.0112	0.03813	0.04083	0.03359	0.02183	0.00709	-0.00467	-0.01872
369.352	0.01079	0.03782	0.04042	0.03329	0.02168	0.00693	-0.00478	-0.01874
369.94	0.01034	0.03741	0.04015	0.03308	0.02154	0.00676	-0.00487	-0.01867
370.528	0.01006	0.03692	0.03977	0.03287	0.02124	0.00654	-0.00505	-0.01874
371.116	0.00958	0.03633	0.0395	0.03244	0.02083	0.00622	-0.00531	-0.01889
371.703	0.00917	0.03588	0.03922	0.0321	0.02061	0.00602	-0.00549	-0.01905
372.291	0.00873	0.03538	0.03893	0.03169	0.02041	0.00589	-0.0056	-0.01911
372.879	0.00835	0.03496	0.03866	0.03146	0.02023	0.00572	-0.00576	-0.01929
373.466	0.00818	0.03464	0.03849	0.03135	0.02007	0.00567	-0.00575	-0.01917
374.054	0.0079	0.03422	0.03824	0.0312	0.01987	0.00553	-0.00569	-0.01916
374.642	0.00751	0.03379	0.03792	0.03076	0.01965	0.00521	-0.00573	-0.01914
375.229	0.00731	0.03335	0.0377	0.0307	0.01966	0.0052	-0.00582	-0.01917
375.817	0.00698	0.03299	0.0374	0.03035	0.01938	0.00501	-0.00582	-0.01925
376.404	0.00658	0.03265	0.03705	0.02991	0.01912	0.00486	-0.00593	-0.01915
376.992	0.00613	0.03205	0.03657	0.02968	0.01886	0.00467	-0.00607	-0.01946
377.579	0.00561	0.03155	0.03609	0.02939	0.01853	0.00444	-0.00622	-0.0195
378.166	0.00525	0.03091	0.0357	0.0291	0.0183	0.00422	-0.0064	-0.01959
378.754	0.00495	0.03055	0.0355	0.02892	0.01827	0.00425	-0.00641	-0.0195
379.341	0.00469	0.03033	0.03532	0.02879	0.01819	0.00416	-0.00652	-0.01937
379.928	0.00428	0.02989	0.03508	0.02863	0.018	0.0041	-0.00665	-0.01937
380.516	0.00397	0.02939	0.03464	0.02846	0.01788	0.00388	-0.00689	-0.01947
381.103	0.00382	0.02908	0.03465	0.02821	0.01773	0.00382	-0.00688	-0.01933
381.69	0.00353	0.02875	0.03444	0.02817	0.01751	0.0037	-0.00701	-0.01938
382.277	0.00312	0.02834	0.03411	0.02768	0.01706	0.00339	-0.00723	-0.01966
382.864	0.00291	0.02827	0.03395	0.02762	0.01709	0.00349	-0.00716	-0.01958
383.452	0.00272	0.02793	0.03368	0.02752	0.01706	0.00343	-0.00713	-0.01936
384.039	0.0026	0.02768	0.03348	0.02741	0.01687	0.0034	-0.00719	-0.01931
384.626	0.00254	0.0274	0.03332	0.02729	0.01678	0.00328	-0.00723	-0.01931
385.213	0.00232	0.02726	0.03302	0.02711	0.01663	0.00321	-0.00729	-0.01929
385.8	0.00192	0.02684	0.03253	0.02674	0.01635	0.0029	-0.0075	-0.01952
386.387	0.00166	0.02659	0.03227	0.02656	0.01622	0.00289	-0.00761	-0.01953
386.973	0.00142	0.02626	0.03195	0.02642	0.01605	0.00274	-0.00777	-0.0196
387.56	0.00115	0.02591	0.03176	0.02614	0.01583	0.00263	-0.00786	-0.01962
388.147	9.04929E-4	0.02564	0.03157	0.02606	0.01578	0.00264	-0.00796	-0.01966
388.734	7.24254E-4	0.02522	0.03136	0.02604	0.01571	0.00258	-0.00801	-0.01963
389.321	5.9784E-4	0.02501	0.03123	0.02591	0.01555	0.00261	-0.00813	-0.01957
389.908	3.57312E-4	0.02473	0.03104	0.02555	0.01527	0.00251	-0.00823	-0.01963
390.494	2.37495E-4	0.02457	0.03096	0.02542	0.01521	0.00248	-0.00826	-0.01968
391.081	-7.65275E-5	0.02408	0.03061	0.02512	0.01502	0.00219	-0.00844	-0.01984
391.668	-2.95954E-4	0.02381	0.03023	0.02487	0.0149	0.00203	-0.00863	-0.02001
392.254	-2.91926E-4	0.02371	0.03012	0.02474	0.01492	0.00209	-0.00852	-0.01992
392.841	-3.48325E-4	0.02363	0.03011	0.02474	0.01489	0.00227	-0.00837	-0.01976
393.427	-5.5225E-4	0.02322	0.02978	0.02449	0.01473	0.0021	-0.00857	-0.01985
394.014	-7.20002E-4	0.02294	0.02947	0.02421	0.01456	0.00205	-0.00858	-0.01995
394.6	-9.67854E-4	0.02254	0.02919	0.02398	0.01441	0.00194	-0.00871	-0.01993
395.187	-0.00122	0.02221	0.02882	0.02376	0.01419	0.00172	-0.00894	-0.02007
395.773	-0.00145	0.0219	0.02867	0.0236	0.01398	0.00158	-0.00901	-0.02028
396.36	-0.00173	0.02164	0.0285	0.02342	0.01385	0.00147	-0.00907	-0.0203
396.946	-0.00199	0.02139	0.02821	0.02321	0.0136	0.00131	-0.00909	-0.02036
397.532	-0.00198	0.02118	0.02821	0.02326	0.0136	0.00137	-0.00901	-0.02029
398.119	-0.00212	0.02099	0.02802	0.02303	0.01346	0.00129	-0.00915	-0.02034
398.705	-0.00235	0.02068	0.02761	0.02288	0.01337	0.00109	-0.00928	-0.02033
399.291	-0.00249	0.02051	0.02739	0.02276	0.01328	0.0011	-0.00933	-0.02047
399.877	-0.00279	0.02021	0.02704	0.02236	0.0131	9.14415E-4	-0.00946	-0.02064
400.463	-0.00292	0.0201	0.02682	0.02216	0.01289	7.29975E-4	-0.00959	-0.02067
401.049	-0.00323	0.01987	0.0265	0.02183	0.01278	4.86188E-4	-0.00973	-0.02078
401.636	-0.00332	0.01972	0.02627	0.02163	0.01268	3.5507E-4	-0.00967	-0.02079
402.222	-0.00348	0.01955	0.02608	0.02155	0.01264	3.31854E-4	-0.00968	-0.02079
402.808	-0.00359	0.01943	0.02575	0.02145	0.01258	2.89141E-4	-0.00963	-0.02082
403.394	-0.00364	0.01927	0.02559	0.0212	0.01233	2.74966E-4	-0.00964	-0.02082
403.98	-0.00394	0.0189	0.0254	0.02104	0.01213	1.88495E-4	-0.0096	-0.02082
404.565	-0.00424	0.01837	0.02505	0.02064	0.0117	-1.12633E-4	-0.00988	-0.02099
405.151	-0.00448	0.01807	0.0248	0.02043	0.01143	-3.0397E-4	-0.01021	-0.02109
405.737	-0.00454	0.01793	0.02479	0.02042	0.01133	-3.34444E-4	-0.01011	-0.02106
406.323	-0.00455	0.01782	0.02479	0.02028	0.0114	-3.2675E-4	-0.01006	-0.02089
406.909	-0.0045	0.01773	0.02474	0.02019	0.01136	-4.24022E-4	-0.0099	-0.02081
407.495	-0.00462	0.01759	0.02465	0.02013	0.01127	-4.61902E-4	-0.00984	-0.02074
408.08	-0.00479	0.01749	0.02442	0.02005	0.01112	-6.24589E-4	-0.00991	-0.02072
408.666	-0.00499	0.01719	0.02418	0.01988	0.01108	-7.44787E-4	-0.00994	-0.02079
409.252	-0.00518	0.01698	0.02394	0.01968	0.01098	-8.29813E-4	-0.01018	-0.0209
409.837	-0.00547	0.01658	0.02363	0.01933	0.01082	-0.00106	-0.01041	-0.02098
410.423	-0.00548	0.01639	0.02355	0.01925	0.01075	-0.00113	-0.01048	-0.02087
411.008	-0.00563	0.01611	0.02358	0.0191	0.01054	-0.00122	-0.01055	-0.02096
411.594	-0.00587	0.01582	0.02339	0.01894	0.01034	-0.00143	-0.01067	-0.02104
412.179	-0.00596	0.01567	0.02317	0.01898	0.0102	-0.00152	-0.01078	-0.02092
412.765	-0.00597	0.01539	0.02309	0.01893	0.0102	-0.00152	-0.01064	-0.02084
413.35	-0.00595	0.0152	0.02305	0.01889	0.01008	-0.0015	-0.01061	-0.0208
413.936	-0.00598	0.01511	0.02294	0.01888	0.00993	-0.00148	-0.01074	-0.02076
414.521	-0.00591	0.01486	0.02276	0.0187	0.00985	-0.00163	-0.01084	-0.02079
415.106	-0.0062	0.01458	0.02254	0.01848	0.00965	-0.00176	-0.01099	-0.02076
415.692	-0.00636	0.0144	0.02238	0.01833	0.0096	-0.00199	-0.01108	-0.02078
416.277	-0.00641	0.01426	0.02205	0.01815	0.00952	-0.00207	-0.01125	-0.0209
416.862	-0.00649	0.01417	0.02183	0.01799	0.00948	-0.00218	-0.01126	-0.02093
417.447	-0.00666	0.01396	0.02158	0.0178	0.00937	-0.00238	-0.01123	-0.021
418.032	-0.00689	0.01374	0.02118	0.01748	0.00912	-0.00257	-0.01149	-0.02107
418.617	-0.00713	0.0134	0.02091	0.01727	0.00884	-0.00285	-0.01173	-0.02125
419.203	-0.00736	0.0131	0.02058	0.01714	0.00859	-0.00299	-0.01199	-0.02133
419.788	-0.00756	0.01278	0.02027	0.01687	0.00843	-0.00313	-0.01213	-0.02138
420.373	-0.00765	0.01265	0.02006	0.01662	0.00836	-0.00319	-0.01213	-0.02129
420.958	-0.00771	0.01245	0.01986	0.01651	0.00819	-0.00327	-0.01217	-0.02132
421.542	-0.00767	0.01228	0.01973	0.01635	0.00792	-0.00333	-0.0121	-0.0213
422.127	-0.00781	0.01216	0.01951	0.01625	0.00773	-0.00341	-0.01215	-0.02127
422.712	-0.00798	0.01187	0.01929	0.01616	0.00748	-0.00358	-0.01213	-0.02135
423.297	-0.00798	0.01166	0.01903	0.01586	0.00742	-0.0038	-0.01223	-0.02132
423.882	-0.00786	0.01158	0.01891	0.01573	0.00741	-0.00375	-0.01217	-0.02113
424.467	-0.00792	0.01134	0.01874	0.01545	0.00724	-0.00393	-0.01211	-0.02118
425.051	-0.00818	0.01105	0.01831	0.01523	0.00692	-0.00411	-0.01243	-0.02141
425.636	-0.00828	0.01083	0.01804	0.01494	0.00678	-0.00432	-0.0125	-0.02144
426.221	-0.00852	0.0105	0.01774	0.01471	0.00676	-0.00438	-0.0126	-0.0216
426.805	-0.00877	0.01021	0.0174	0.01452	0.00657	-0.00452	-0.0128	-0.02155
427.39	-0.0089	0.00991	0.0171	0.01434	0.00639	-0.00472	-0.01287	-0.02156
427.975	-0.00893	0.0098	0.017	0.01426	0.00624	-0.00467	-0.01282	-0.02149
428.559	-0.009	0.00963	0.0169	0.01416	0.00604	-0.00492	-0.01273	-0.02139
429.144	-0.00904	0.00935	0.01668	0.01399	0.00587	-0.00502	-0.01273	-0.02131
429.728	-0.00902	0.00933	0.0166	0.01391	0.00586	-0.00493	-0.01265	-0.02122
430.313	-0.00904	0.00923	0.01633	0.01376	0.00574	-0.00504	-0.01263	-0.02116
430.897	-0.0091	0.00916	0.01604	0.01358	0.0057	-0.0051	-0.01271	-0.02108
431.481	-0.00922	0.00899	0.01586	0.01325	0.00544	-0.00518	-0.01272	-0.02128
432.066	-0.00934	0.00866	0.01555	0.01287	0.00518	-0.0054	-0.01279	-0.0214
432.65	-0.00928	0.00847	0.01542	0.01279	0.00518	-0.00537	-0.0129	-0.02136
433.234	-0.00926	0.00841	0.01521	0.01261	0.00507	-0.00549	-0.01299	-0.02131
433.818	-0.00933	0.00825	0.015	0.01262	0.00502	-0.00557	-0.01307	-0.0212
434.403	-0.00923	0.00824	0.01486	0.01246	0.00496	-0.00566	-0.01302	-0.0212
434.987	-0.00921	0.00823	0.0147	0.01235	0.00501	-0.00546	-0.01294	-0.02107
435.571	-0.00943	0.00809	0.01442	0.01225	0.0048	-0.00552	-0.01297	-0.02104
436.155	-0.00966	0.00781	0.01403	0.01214	0.00459	-0.00567	-0.01303	-0.0211
436.739	-0.00971	0.00765	0.01385	0.01192	0.00457	-0.00572	-0.01322	-0.02116
437.323	-0.0097	0.0075	0.01363	0.01171	0.00444	-0.00572	-0.01325	-0.0211
437.907	-0.00982	0.0072	0.0135	0.01159	0.00434	-0.0058	-0.01337	-0.0211
438.491	-0.00997	0.00694	0.01322	0.01124	0.00399	-0.00613	-0.01332	-0.02099
439.075	-0.00998	0.0066	0.01309	0.01104	0.00386	-0.00631	-0.01328	-0.02108
439.659	-0.0099	0.00652	0.01294	0.01089	0.00384	-0.00633	-0.01332	-0.02109
440.243	-0.01009	0.00623	0.01253	0.01049	0.00365	-0.00647	-0.01351	-0.02119
440.826	-0.0101	0.00603	0.01235	0.01035	0.00363	-0.00636	-0.01354	-0.02124
441.41	-0.01014	0.00599	0.01218	0.01027	0.00358	-0.00631	-0.01358	-0.02131
441.994	-0.01042	0.00553	0.01182	0.00982	0.00336	-0.0067	-0.01386	-0.02147
442.578	-0.01044	0.00531	0.01178	0.0097	0.00338	-0.00665	-0.01368	-0.02133
443.161	-0.01056	0.00508	0.01155	0.00947	0.0032	-0.00679	-0.01363	-0.02141
443.745	-0.01066	0.00489	0.01132	0.00944	0.00334	-0.00676	-0.01369	-0.02121
444.328	-0.01064	0.00485	0.0113	0.00943	0.00333	-0.0068	-0.01366	-0.02104
444.912	-0.01083	0.00448	0.01103	0.00916	0.00302	-0.00705	-0.01368	-0.02103
445.496	-0.01094	0.00431	0.0109	0.00904	0.00287	-0.00717	-0.01377	-0.021
446.079	-0.01105	0.00417	0.01071	0.00873	0.00273	-0.00719	-0.01367	-0.02105
446.662	-0.01118	0.00384	0.01046	0.00847	0.0026	-0.0073	-0.0137	-0.02101
447.246	-0.01124	0.00374	0.01035	0.00839	0.00255	-0.00736	-0.01365	-0.02086
447.829	-0.01134	0.00363	0.01033	0.00826	0.00266	-0.00743	-0.01374	-0.02097
448.413	-0.01129	0.00358	0.01017	0.00811	0.00249	-0.00749	-0.01375	-0.02094
448.996	-0.0113	0.00342	0.0101	0.00806	0.00244	-0.00738	-0.01367	-0.02073
449.579	-0.01126	0.00329	0.01014	0.00811	0.00256	-0.00733	-0.01333	-0.02056
450.163	-0.0113	0.00325	0.00992	0.00793	0.0025	-0.00739	-0.01337	-0.02048
450.746	-0.01117	0.0033	0.00995	0.00802	0.00262	-0.00724	-0.01334	-0.02041
451.329	-0.01109	0.0035	0.01008	0.00804	0.00265	-0.00695	-0.01314	-0.02017
451.912	-0.01124	0.00329	0.00983	0.00795	0.00246	-0.00713	-0.0132	-0.02013
452.495	-0.01122	0.00314	0.00981	0.008	0.00251	-0.00714	-0.01312	-0.02009
453.078	-0.01141	0.00305	0.00966	0.00774	0.00223	-0.00736	-0.01341	-0.02001
453.661	-0.01148	0.00292	0.00955	0.00779	0.00223	-0.00733	-0.01331	-0.01982
454.244	-0.01137	0.00296	0.00942	0.00781	0.00216	-0.00727	-0.01322	-0.01977
454.827	-0.0114	0.00281	0.0093	0.00792	0.00196	-0.00732	-0.01325	-0.01988
455.41	-0.0113	0.00259	0.00915	0.00783	0.00191	-0.00731	-0.01331	-0.01983
455.993	-0.01125	0.00241	0.00923	0.00782	0.00183	-0.00737	-0.01326	-0.01978
456.576	-0.01135	0.00229	0.00899	0.00768	0.00181	-0.00744	-0.01327	-0.01984
457.159	-0.01124	0.00234	0.00895	0.00776	0.00193	-0.00715	-0.01322	-0.01987
457.742	-0.01126	0.00216	0.00875	0.00767	0.002	-0.00711	-0.01336	-0.01978
458.324	-0.01142	0.00192	0.00843	0.0076	0.00192	-0.00734	-0.01358	-0.01973
458.907	-0.0116	0.00176	0.00842	0.00753	0.00184	-0.0074	-0.01371	-0.01983
459.49	-0.01166	0.00156	0.00822	0.0073	0.00177	-0.00755	-0.0138	-0.01993
460.072	-0.01153	0.00132	0.0081	0.00711	0.00166	-0.00739	-0.01382	-0.01969
460.655	-0.01161	0.00112	0.00798	0.00699	0.00164	-0.00737	-0.01376	-0.01959
461.238	-0.01184	9.00597E-4	0.00774	0.00688	0.00149	-0.00745	-0.01394	-0.0196
461.82	-0.01195	7.59858E-4	0.0073	0.0066	0.00115	-0.00765	-0.01422	-0.01972
462.403	-0.01204	5.715E-4	0.00721	0.00664	0.00107	-0.00754	-0.01408	-0.01967
462.985	-0.01209	4.26881E-4	0.00694	0.00651	0.00101	-0.0076	-0.01408	-0.0196
463.567	-0.01225	2.92571E-7	0.0067	0.00635	8.56175E-4	-0.00774	-0.01425	-0.01978
464.15	-0.01233	-1.78659E-5	0.00671	0.00622	9.00266E-4	-0.00769	-0.01424	-0.01972
464.732	-0.01233	-8.19735E-5	0.00667	0.00637	8.93866E-4	-0.00765	-0.01413	-0.0196
465.315	-0.01227	-2.89531E-4	0.00655	0.00636	0.00106	-0.00769	-0.014	-0.01952
465.897	-0.01226	-5.28441E-4	0.00637	0.00626	0.00101	-0.00766	-0.0141	-0.01964
466.479	-0.01238	-7.48878E-4	0.00615	0.00618	9.29445E-4	-0.00771	-0.01408	-0.01952
467.061	-0.0124	-8.56716E-4	0.00616	0.00618	0.00105	-0.00772	-0.01407	-0.01944
467.643	-0.01261	-0.00102	0.0059	0.00609	8.71832E-4	-0.00787	-0.01414	-0.01948
468.226	-0.01258	-9.22876E-4	0.0059	0.00607	9.44354E-4	-0.00779	-0.01393	-0.01946
468.808	-0.01252	-0.00108	0.0058	0.00603	8.17236E-4	-0.0077	-0.01404	-0.01932
469.39	-0.01263	-0.00126	0.00565	0.00599	6.65234E-4	-0.00793	-0.01399	-0.01926
469.972	-0.01253	-0.00136	0.00569	0.00598	7.14241E-4	-0.00776	-0.01374	-0.0192
470.554	-0.01237	-0.00127	0.00587	0.00617	8.26863E-4	-0.0074	-0.01343	-0.01905
471.136	-0.01229	-0.00141	0.00578	0.0062	8.26455E-4	-0.0074	-0.0135	-0.01907
471.718	-0.01234	-0.0015	0.00552	0.00611	6.39881E-4	-0.00752	-0.01356	-0.0191
472.3	-0.01254	-0.00156	0.00535	0.00618	4.35376E-4	-0.00756	-0.01359	-0.01922
472.882	-0.01246	-0.00158	0.00525	0.00606	3.80363E-4	-0.00767	-0.01359	-0.01919
473.463	-0.01246	-0.00176	0.00524	0.00597	3.75897E-4	-0.00776	-0.01357	-0.01922
474.045	-0.01257	-0.00189	0.00534	0.00596	4.58235E-4	-0.00776	-0.01348	-0.01908
474.627	-0.01251	-0.0019	0.00539	0.00588	4.60959E-4	-0.00775	-0.01333	-0.01922
475.209	-0.01269	-0.00209	0.0051	0.0056	3.86974E-4	-0.00801	-0.01351	-0.01929
475.79	-0.01269	-0.00193	0.00514	0.00554	3.48028E-4	-0.00795	-0.01329	-0.01926
476.372	-0.01255	-0.00198	0.00495	0.0053	1.85906E-4	-0.00804	-0.01333	-0.0193
476.954	-0.01247	-0.00195	0.00483	0.00516	1.74298E-4	-0.00793	-0.01335	-0.01922
477.535	-0.01241	-0.00196	0.0046	0.00498	4.95664E-5	-0.00786	-0.01334	-0.01913
478.117	-0.0125	-0.00204	0.00466	0.00492	5.75375E-5	-0.00801	-0.01327	-0.01898
478.698	-0.01253	-0.00222	0.00451	0.00475	2.61844E-6	-0.00807	-0.01344	-0.0191
479.28	-0.01258	-0.00235	0.00434	0.00463	-5.00628E-5	-0.00803	-0.01344	-0.01909
479.861	-0.01248	-0.00231	0.00438	0.0047	-1.29579E-5	-0.00792	-0.01343	-0.01899
480.442	-0.01264	-0.00252	0.00414	0.00459	-1.45353E-4	-0.00808	-0.01361	-0.01901
481.024	-0.01279	-0.00266	0.0041	0.00449	-1.85851E-4	-0.00812	-0.01358	-0.01915
481.605	-0.01279	-0.00265	0.00388	0.00434	-2.00409E-4	-0.0081	-0.01368	-0.01911
482.186	-0.01303	-0.0028	0.00365	0.00418	-3.17426E-4	-0.0083	-0.01384	-0.01919
482.768	-0.01312	-0.00296	0.00347	0.00398	-2.83214E-4	-0.00835	-0.01385	-0.01928
483.349	-0.01325	-0.00306	0.00332	0.00392	-1.96231E-4	-0.00824	-0.01374	-0.01916
483.93	-0.01327	-0.00317	0.00329	0.00384	-1.38902E-4	-0.00821	-0.01364	-0.01907
484.511	-0.01332	-0.00323	0.00323	0.00374	-6.04822E-5	-0.00827	-0.01357	-0.01911
485.092	-0.01345	-0.00338	0.00318	0.0038	-4.26796E-5	-0.00829	-0.01363	-0.01919
485.673	-0.01351	-0.00323	0.00304	0.00385	-7.17752E-5	-0.0083	-0.01355	-0.01914
486.254	-0.0135	-0.00331	0.00296	0.00385	-5.81655E-5	-0.00825	-0.01371	-0.01919
486.835	-0.01354	-0.00348	0.00277	0.00384	-1.63831E-4	-0.00834	-0.01384	-0.01909
487.416	-0.01349	-0.00343	0.00277	0.0039	-1.57177E-4	-0.00824	-0.01378	-0.01896
487.997	-0.01349	-0.00341	0.00275	0.00408	6.08483E-5	-0.00823	-0.01372	-0.0188
488.578	-0.01364	-0.00358	0.00259	0.0042	1.192E-4	-0.00824	-0.01376	-0.01872
489.159	-0.0137	-0.00367	0.00264	0.00427	2.90963E-4	-0.00809	-0.01364	-0.01861
489.74	-0.01374	-0.00373	0.00262	0.00435	2.32038E-4	-0.00811	-0.01363	-0.01859
490.32	-0.01366	-0.00377	0.00261	0.00449	3.63842E-4	-0.00783	-0.01352	-0.01849
490.901	-0.01373	-0.00375	0.00255	0.00445	3.24939E-4	-0.00776	-0.01353	-0.01836
491.482	-0.01389	-0.00396	0.00246	0.00426	1.77036E-4	-0.00789	-0.01368	-0.01839
492.063	-0.014	-0.00408	0.00232	0.00413	2.25904E-4	-0.00793	-0.01359	-0.01838
492.643	-0.0139	-0.00398	0.00225	0.00412	3.23819E-4	-0.00768	-0.01353	-0.01811
493.224	-0.01378	-0.00387	0.00215	0.00414	5.55135E-4	-0.00747	-0.01342	-0.01787
493.804	-0.01378	-0.00398	0.00221	0.0041	6.58519E-4	-0.00729	-0.01321	-0.01776
494.385	-0.01364	-0.00394	0.00228	0.00425	8.48419E-4	-0.00707	-0.01303	-0.01766
494.965	-0.01357	-0.00398	0.00238	0.00439	7.72845E-4	-0.00708	-0.01298	-0.01761
495.546	-0.01347	-0.00396	0.00237	0.0044	5.45207E-4	-0.00718	-0.01274	-0.01737
496.126	-0.01333	-0.00396	0.00235	0.00454	6.37242E-4	-0.00709	-0.01282	-0.01741
496.706	-0.01319	-0.00386	0.0024	0.00475	6.57905E-4	-0.00694	-0.01264	-0.01708
497.287	-0.0131	-0.00375	0.0024	0.00485	7.09243E-4	-0.00669	-0.01251	-0.017
497.867	-0.01292	-0.00388	0.00263	0.00481	8.15348E-4	-0.00651	-0.01233	-0.01697
498.447	-0.01311	-0.00387	0.00252	0.00458	6.81481E-4	-0.00661	-0.0121	-0.01684
499.028	-0.0132	-0.00375	0.00265	0.0046	8.48788E-4	-0.0065	-0.01205	-0.01673
499.608	-0.01324	-0.00386	0.00262	0.00465	7.18923E-4	-0.00655	-0.01198	-0.01685
500.188	-0.01326	-0.00395	0.0025	0.00463	7.12054E-4	-0.00651	-0.01191	-0.01673
500.768	-0.01311	-0.00385	0.00261	0.00453	5.49492E-4	-0.00639	-0.01177	-0.0166
501.348	-0.01326	-0.00421	0.00235	0.00441	2.26379E-4	-0.00659	-0.01185	-0.01677
501.928	-0.01351	-0.00426	0.00234	0.0044	3.64182E-4	-0.0066	-0.0118	-0.01681
502.508	-0.01368	-0.00436	0.00218	0.00417	2.0935E-4	-0.00682	-0.01188	-0.01683
503.088	-0.01362	-0.00428	0.00206	0.00423	4.58659E-4	-0.0068	-0.01162	-0.0168
503.668	-0.01352	-0.00409	0.0022	0.00445	6.65234E-4	-0.00645	-0.0114	-0.01658
504.248	-0.01349	-0.00415	0.00216	0.00447	6.70525E-4	-0.0064	-0.01146	-0.0165
504.828	-0.01364	-0.00448	0.00201	0.00443	6.66701E-4	-0.00649	-0.01145	-0.01685
505.407	-0.01376	-0.00464	0.00206	0.00452	5.36107E-4	-0.00644	-0.01155	-0.01681
505.987	-0.01398	-0.00473	0.00191	0.00457	4.27962E-4	-0.00657	-0.0116	-0.01689
506.567	-0.01395	-0.00488	0.0019	0.00452	4.11427E-4	-0.00665	-0.0115	-0.01674
507.147	-0.01415	-0.00494	0.00191	0.00435	5.45499E-4	-0.00662	-0.01155	-0.01673
507.726	-0.01417	-0.00494	0.00192	0.00445	8.01835E-4	-0.00656	-0.0116	-0.01674
508.306	-0.01412	-0.00486	0.00196	0.00442	8.39895E-4	-0.00625	-0.01152	-0.01672
508.885	-0.01416	-0.00479	0.00183	0.0042	8.96524E-4	-0.00637	-0.01146	-0.01664
509.465	-0.01435	-0.00489	0.0017	0.00403	9.79598E-4	-0.00642	-0.01133	-0.01659
510.045	-0.01438	-0.005	0.00142	0.00405	0.001	-0.0064	-0.01136	-0.01662
510.624	-0.01425	-0.00497	0.00144	0.0041	0.00115	-0.00631	-0.01143	-0.01667
511.203	-0.01432	-0.0052	0.00125	0.00401	0.00124	-0.0062	-0.0112	-0.01679
511.783	-0.0141	-0.00504	0.0013	0.00412	0.00144	-0.00593	-0.01105	-0.01655
512.362	-0.01406	-0.00508	0.00125	0.00419	0.00161	-0.00571	-0.01091	-0.01647
512.942	-0.01418	-0.00504	0.00116	0.0042	0.00184	-0.00577	-0.01091	-0.01646
513.521	-0.01414	-0.00487	0.00142	0.00424	0.0022	-0.00541	-0.01077	-0.01621
514.1	-0.01399	-0.00476	0.00145	0.00436	0.00229	-0.00535	-0.01066	-0.01609
514.679	-0.01398	-0.00467	0.0016	0.00448	0.00257	-0.00512	-0.01049	-0.01601
515.258	-0.01397	-0.00479	0.00167	0.00461	0.00261	-0.00503	-0.01042	-0.01588
515.838	-0.01411	-0.0048	0.00151	0.00448	0.00263	-0.00518	-0.01051	-0.0161
516.417	-0.01436	-0.00482	0.0015	0.00452	0.00286	-0.00512	-0.01038	-0.01599
516.996	-0.01449	-0.00485	0.00155	0.00438	0.00274	-0.00514	-0.01038	-0.01581
517.575	-0.01433	-0.00481	0.00152	0.00432	0.00297	-0.00517	-0.01007	-0.01581
518.154	-0.01423	-0.00465	0.00166	0.00435	0.0031	-0.00504	-0.01	-0.01576
518.733	-0.01434	-0.00461	0.00146	0.00432	0.00305	-0.00496	-0.00989	-0.01574
519.312	-0.0142	-0.00448	0.00138	0.00446	0.00305	-0.00491	-0.00983	-0.01559
519.89	-0.01426	-0.00439	0.00126	0.00442	0.00301	-0.00486	-0.00982	-0.01562
520.469	-0.01445	-0.00447	0.00113	0.00445	0.00307	-0.00485	-0.0098	-0.01565
521.048	-0.01441	-0.00471	0.00113	0.00456	0.00302	-0.00468	-0.00956	-0.01568
521.627	-0.01433	-0.00463	0.00116	0.00452	0.00295	-0.00454	-0.00936	-0.01564
522.205	-0.0144	-0.00453	0.00134	0.00463	0.00315	-0.00442	-0.0092	-0.01564
522.784	-0.01422	-0.00466	0.00156	0.00484	0.00331	-0.00428	-0.00891	-0.0154
523.363	-0.01406	-0.00474	0.00164	0.00497	0.00345	-0.00414	-0.00885	-0.01532
523.941	-0.01442	-0.00514	0.00147	0.00475	0.00314	-0.00447	-0.00908	-0.01547
524.52	-0.01445	-0.00535	0.00154	0.00446	0.00297	-0.00442	-0.00925	-0.01552
525.098	-0.01453	-0.00544	0.00159	0.00469	0.00302	-0.00428	-0.00899	-0.01554
525.677	-0.01464	-0.00546	0.00153	0.00467	0.00284	-0.00443	-0.00893	-0.01565
526.255	-0.01496	-0.00574	0.00134	0.00449	0.00281	-0.00456	-0.00899	-0.01569
526.834	-0.0149	-0.00581	0.00126	0.00443	0.00275	-0.00447	-0.00891	-0.01571
527.412	-0.0147	-0.00567	0.00133	0.00466	0.00281	-0.00422	-0.00869	-0.01548
527.99	-0.01458	-0.00578	0.00135	0.00463	0.00287	-0.00402	-0.00866	-0.01513
528.569	-0.01439	-0.00561	0.00135	0.00467	0.00292	-0.00393	-0.00844	-0.01497
529.147	-0.01425	-0.00555	0.00145	0.00492	0.00318	-0.00378	-0.00827	-0.01481
529.725	-0.01419	-0.0056	0.00141	0.005	0.00319	-0.0037	-0.00818	-0.01474
530.303	-0.01426	-0.00576	0.00137	0.00502	0.00325	-0.00377	-0.00805	-0.01473
530.882	-0.01426	-0.00585	0.00145	0.00501	0.00324	-0.00366	-0.00803	-0.01475
531.46	-0.01423	-0.00592	0.0014	0.00499	0.00337	-0.00356	-0.00799	-0.01462
532.038	-0.01424	-0.00608	0.00138	0.00494	0.00341	-0.00341	-0.00794	-0.01463
532.616	-0.01412	-0.00611	0.0014	0.00493	0.00348	-0.00335	-0.00776	-0.01445
533.194	-0.01403	-0.00615	0.00141	0.00494	0.00366	-0.00327	-0.00784	-0.01437
533.772	-0.01406	-0.00618	0.00147	0.00501	0.00366	-0.00329	-0.00775	-0.01429
534.35	-0.01395	-0.00625	0.00146	0.00491	0.0037	-0.00324	-0.00767	-0.01427
534.927	-0.01412	-0.00614	0.00139	0.00493	0.00366	-0.00316	-0.00766	-0.01415
535.505	-0.01404	-0.00601	0.00147	0.00496	0.00379	-0.00305	-0.00755	-0.01401
536.083	-0.01405	-0.00595	0.00139	0.005	0.00391	-0.00292	-0.00743	-0.01392
536.661	-0.01414	-0.00608	0.0012	0.00502	0.00392	-0.00291	-0.00731	-0.01392
537.239	-0.01421	-0.00608	0.00113	0.00497	0.00391	-0.00289	-0.00726	-0.01381
537.816	-0.01413	-0.00613	0.00112	0.00501	0.00403	-0.0028	-0.00719	-0.01361
538.394	-0.01394	-0.00602	0.00121	0.00515	0.0041	-0.0026	-0.00689	-0.01341
538.972	-0.01401	-0.00604	0.00119	0.00511	0.0041	-0.00259	-0.00686	-0.0133
539.549	-0.01409	-0.00616	0.00115	0.00502	0.00416	-0.00258	-0.00681	-0.01337
540.127	-0.01416	-0.00614	0.00117	0.0051	0.00428	-0.00254	-0.00659	-0.01333
540.704	-0.01421	-0.00631	0.00118	0.0051	0.00427	-0.00247	-0.00653	-0.01336
541.282	-0.01434	-0.00631	0.00102	0.00498	0.00429	-0.00249	-0.00644	-0.01321
541.859	-0.01446	-0.00644	9.35801E-4	0.00489	0.00429	-0.00247	-0.00639	-0.01317
542.436	-0.01452	-0.00648	8.70951E-4	0.00484	0.00431	-0.00237	-0.00628	-0.01302
543.014	-0.01453	-0.0065	7.7915E-4	0.00482	0.00443	-0.00234	-0.00616	-0.01292
543.591	-0.01456	-0.00654	7.55088E-4	0.00483	0.00431	-0.00228	-0.00595	-0.0128
544.168	-0.01458	-0.00658	5.96891E-4	0.00484	0.00431	-0.00232	-0.00583	-0.01277
544.745	-0.01466	-0.00647	6.49776E-4	0.00486	0.00439	-0.0022	-0.00573	-0.0127
545.323	-0.01472	-0.00651	6.08009E-4	0.00486	0.00451	-0.00206	-0.00562	-0.01258
545.9	-0.01471	-0.0065	5.68868E-4	0.00485	0.00461	-0.00196	-0.00551	-0.01235
546.477	-0.01474	-0.00651	5.72318E-4	0.00486	0.00467	-0.00183	-0.00542	-0.01217
547.054	-0.01469	-0.00657	5.06562E-4	0.00489	0.00479	-0.00177	-0.00518	-0.01211
547.631	-0.01482	-0.00668	4.17205E-4	0.00481	0.00463	-0.00173	-0.0051	-0.01203
548.208	-0.01487	-0.00678	3.47695E-4	0.00484	0.00464	-0.00177	-0.005	-0.0119
548.785	-0.01487	-0.00682	3.09799E-4	0.00476	0.00459	-0.0017	-0.00507	-0.01182
549.362	-0.01477	-0.00682	2.40889E-4	0.00479	0.00473	-0.00156	-0.00501	-0.0117
549.939	-0.01478	-0.00688	1.21992E-4	0.00471	0.00475	-0.00142	-0.00483	-0.01155
550.515	-0.01484	-0.00701	7.78566E-5	0.00456	0.00473	-0.00136	-0.00481	-0.01151
551.092	-0.01493	-0.00707	-1.74833E-6	0.00456	0.00476	-0.00133	-0.00476	-0.01132
551.669	-0.01491	-0.00711	-1.05624E-4	0.0045	0.0047	-0.00126	-0.00473	-0.01123
552.246	-0.01486	-0.00716	-1.30595E-4	0.00447	0.00472	-0.00115	-0.00456	-0.01106
552.822	-0.01493	-0.00734	-2.99691E-4	0.00436	0.00464	-0.00116	-0.00458	-0.01099
553.399	-0.01493	-0.00742	-3.6464E-4	0.00442	0.00463	-0.00113	-0.00451	-0.01095
553.976	-0.01501	-0.00744	-3.00213E-4	0.00445	0.00462	-0.00103	-0.0044	-0.0108
554.552	-0.01494	-0.00744	-2.89622E-4	0.00439	0.00462	-9.29431E-4	-0.00429	-0.01062
555.129	-0.01495	-0.00741	-3.23748E-4	0.00447	0.00461	-8.29604E-4	-0.00413	-0.01038
555.705	-0.01499	-0.00742	-3.38009E-4	0.00444	0.00469	-7.85094E-4	-0.00405	-0.01017
556.282	-0.01505	-0.00747	-2.98059E-4	0.00441	0.00466	-7.97403E-4	-0.00397	-0.00997
556.858	-0.015	-0.00753	-3.03474E-4	0.00455	0.00472	-7.37283E-4	-0.00373	-0.00972
557.434	-0.01505	-0.00755	-3.57071E-4	0.00452	0.00461	-6.78749E-4	-0.0037	-0.0096
558.011	-0.01505	-0.00754	-4.27544E-4	0.00451	0.00471	-6.17651E-4	-0.0036	-0.00942
558.587	-0.01502	-0.00752	-4.39262E-4	0.00446	0.00471	-4.69305E-4	-0.00347	-0.00918
559.163	-0.01495	-0.00748	-3.70145E-4	0.00449	0.00474	-3.99509E-4	-0.00341	-0.00892
559.739	-0.01495	-0.00745	-3.7736E-4	0.00448	0.00484	-3.57362E-4	-0.00335	-0.00873
560.315	-0.01494	-0.00743	-3.83604E-4	0.00444	0.00492	-3.14579E-4	-0.00322	-0.00858
560.892	-0.0149	-0.00743	-3.83241E-4	0.00453	0.00504	-2.16335E-4	-0.00292	-0.0083
561.468	-0.01493	-0.00739	-3.20849E-4	0.00446	0.00504	-1.78317E-4	-0.00279	-0.00807
562.044	-0.01504	-0.00744	-4.25915E-4	0.00438	0.00502	-2.05177E-4	-0.00278	-0.00798
562.62	-0.01503	-0.00747	-4.86821E-4	0.00442	0.00503	-1.84468E-4	-0.00266	-0.00779
563.196	-0.01497	-0.00752	-5.21056E-4	0.00435	0.00509	-1.55068E-4	-0.00249	-0.00766
563.772	-0.01506	-0.00761	-5.89602E-4	0.00432	0.00508	-1.51237E-4	-0.00245	-0.00749
564.347	-0.01512	-0.00768	-6.83183E-4	0.00432	0.00507	-1.58354E-4	-0.00232	-0.00733
564.923	-0.01504	-0.00761	-5.99745E-4	0.00438	0.00513	1.36587E-5	-0.00208	-0.00699
565.499	-0.01495	-0.0076	-5.47563E-4	0.0044	0.00523	1.37236E-4	-0.00188	-0.00672
566.075	-0.01491	-0.00758	-6.6984E-4	0.00439	0.00523	2.0475E-4	-0.00174	-0.00653
566.651	-0.01481	-0.00761	-6.4109E-4	0.0044	0.00536	3.34261E-4	-0.00155	-0.00626
567.226	-0.01475	-0.00772	-7.06494E-4	0.00432	0.00537	3.79108E-4	-0.00144	-0.00611
567.802	-0.01461	-0.00769	-6.74228E-4	0.00439	0.00545	5.30417E-4	-0.00124	-0.00584
568.377	-0.01455	-0.00769	-6.46037E-4	0.0044	0.00548	6.35811E-4	-0.0011	-0.0056
568.953	-0.01456	-0.00775	-7.05587E-4	0.00432	0.00543	6.62656E-4	-0.00105	-0.00538
569.529	-0.0145	-0.00779	-7.18817E-4	0.00429	0.00543	7.54227E-4	-8.83207E-4	-0.00515
570.104	-0.01446	-0.00777	-6.78541E-4	0.00433	0.00541	8.91289E-4	-7.05217E-4	-0.0049
570.679	-0.01453	-0.00785	-8.4374E-4	0.00431	0.00539	8.09365E-4	-6.38099E-4	-0.00476
571.255	-0.01447	-0.00784	-9.18032E-4	0.0043	0.0054	8.7716E-4	-4.91114E-4	-0.00455
571.83	-0.01442	-0.00793	-9.43212E-4	0.00426	0.00538	9.32643E-4	-2.8239E-4	-0.00434
572.406	-0.0144	-0.00796	-9.84203E-4	0.00423	0.00526	9.72622E-4	-1.86415E-4	-0.00411
572.981	-0.01438	-0.008	-9.87084E-4	0.00414	0.00523	0.00102	-1.08276E-4	-0.0039
573.556	-0.01431	-0.00805	-0.00108	0.00421	0.00517	0.00108	-3.1426E-6	-0.00368
574.131	-0.01428	-0.00811	-0.00111	0.00423	0.00518	0.00116	1.57207E-4	-0.00343
574.706	-0.01425	-0.0081	-0.00115	0.00422	0.00518	0.0012	2.83911E-4	-0.00316
575.282	-0.01422	-0.00805	-0.00118	0.00425	0.00516	0.00133	4.41302E-4	-0.00288
575.857	-0.01411	-0.00799	-0.00115	0.00427	0.0052	0.00142	6.82761E-4	-0.00257
576.432	-0.01406	-0.00799	-0.00115	0.00424	0.00521	0.00151	7.77879E-4	-0.00231
577.007	-0.01406	-0.00807	-0.00127	0.00416	0.00518	0.00148	8.46965E-4	-0.00215
577.582	-0.01405	-0.00809	-0.00128	0.00413	0.00512	0.00153	9.85477E-4	-0.00187
578.157	-0.01401	-0.00809	-0.0013	0.00408	0.00509	0.00158	0.00111	-0.00159
578.731	-0.01405	-0.00809	-0.00138	0.00409	0.00505	0.00163	0.00124	-0.00131
579.306	-0.01412	-0.0081	-0.00142	0.00403	0.00502	0.00165	0.00136	-0.00105
579.881	-0.0141	-0.00811	-0.00147	0.00404	0.00499	0.00171	0.00152	-7.92064E-4
580.456	-0.01417	-0.00818	-0.00159	0.00396	0.00496	0.00174	0.00166	-5.20188E-4
581.031	-0.01412	-0.00814	-0.00161	0.00394	0.00498	0.0018	0.00186	-2.55348E-4
581.605	-0.01426	-0.00824	-0.00171	0.00387	0.00493	0.00172	0.00193	-7.87859E-6
582.18	-0.01419	-0.00831	-0.00178	0.00388	0.0049	0.00173	0.00205	2.80766E-4
582.754	-0.01417	-0.00832	-0.00171	0.00389	0.0049	0.00185	0.00224	5.91811E-4
583.329	-0.01421	-0.00837	-0.00174	0.00386	0.00486	0.00185	0.00239	9.0117E-4
583.904	-0.01427	-0.0084	-0.00179	0.00387	0.00484	0.00194	0.00251	0.00123
584.478	-0.01422	-0.0084	-0.00184	0.00382	0.00493	0.00205	0.00271	0.00153
585.052	-0.01425	-0.0084	-0.0019	0.00381	0.0049	0.00208	0.00286	0.00185
585.627	-0.01422	-0.00834	-0.00184	0.0038	0.005	0.00218	0.00312	0.00221
586.201	-0.01415	-0.00835	-0.00185	0.00381	0.00497	0.00227	0.00325	0.00258
586.776	-0.01416	-0.0084	-0.0019	0.00381	0.00492	0.00231	0.00332	0.00288
587.35	-0.01413	-0.00848	-0.00193	0.0038	0.00499	0.00235	0.00353	0.00323
587.924	-0.01427	-0.00861	-0.00209	0.00366	0.00487	0.00235	0.00359	0.00354
588.498	-0.01426	-0.00865	-0.00217	0.00364	0.00481	0.00244	0.00377	0.00392
589.072	-0.01427	-0.00865	-0.0022	0.00364	0.00477	0.00245	0.0039	0.00427
589.646	-0.01425	-0.00865	-0.0023	0.00359	0.00482	0.0025	0.00409	0.00462
590.221	-0.01421	-0.00872	-0.0023	0.00359	0.00486	0.00255	0.00428	0.00499
590.795	-0.01414	-0.00875	-0.00231	0.00357	0.00484	0.00261	0.00441	0.00536
591.369	-0.01411	-0.00881	-0.00233	0.00355	0.0048	0.00265	0.00453	0.00575
591.943	-0.01407	-0.00881	-0.00237	0.00353	0.00483	0.0027	0.0047	0.00615
592.516	-0.01403	-0.00886	-0.00241	0.00347	0.00484	0.00275	0.00485	0.00654
593.09	-0.01393	-0.00888	-0.00243	0.00349	0.00484	0.00286	0.00502	0.00697
593.664	-0.01392	-0.00891	-0.00248	0.00348	0.00487	0.00293	0.00519	0.00737
594.238	-0.01395	-0.00895	-0.00255	0.00343	0.00487	0.00301	0.00535	0.00774
594.812	-0.0139	-0.00899	-0.0026	0.00341	0.00493	0.00312	0.00556	0.00821
595.385	-0.01384	-0.00903	-0.00263	0.0034	0.00491	0.00322	0.0057	0.00855
595.959	-0.01378	-0.00901	-0.00264	0.00344	0.00494	0.00335	0.00588	0.00899
596.533	-0.01376	-0.00904	-0.00255	0.00351	0.00495	0.00342	0.00602	0.00943
597.106	-0.01373	-0.0091	-0.00259	0.0035	0.00497	0.00351	0.00619	0.00982
597.68	-0.01373	-0.00924	-0.00271	0.00341	0.00484	0.00349	0.00627	0.01013
598.253	-0.01371	-0.0092	-0.00273	0.00339	0.00492	0.00353	0.00647	0.01053
598.827	-0.01371	-0.00926	-0.00274	0.00331	0.00493	0.00357	0.00667	0.01087
599.4	-0.01373	-0.00926	-0.00278	0.00328	0.00487	0.00362	0.00678	0.01123
599.974	-0.01368	-0.00931	-0.00277	0.00329	0.00494	0.00367	0.00699	0.01156
600.547	-0.01369	-0.00933	-0.0028	0.00332	0.00498	0.00373	0.00718	0.01196
601.12	-0.01367	-0.00931	-0.00277	0.00331	0.00505	0.00386	0.00738	0.01236
601.693	-0.01363	-0.00928	-0.00272	0.00332	0.00503	0.00396	0.00754	0.01278
602.267	-0.01371	-0.00934	-0.00279	0.00324	0.00499	0.00396	0.00761	0.01311
602.84	-0.01367	-0.00931	-0.0028	0.00327	0.00503	0.004	0.00782	0.01347
603.413	-0.01372	-0.00933	-0.00281	0.00326	0.00508	0.00404	0.00798	0.01385
603.986	-0.01374	-0.0094	-0.00278	0.00325	0.00507	0.00412	0.00808	0.01414
604.559	-0.01374	-0.0094	-0.00278	0.00332	0.00504	0.0042	0.00826	0.01452
605.132	-0.01377	-0.00946	-0.00281	0.00331	0.00502	0.00421	0.00845	0.0148
605.705	-0.01366	-0.00937	-0.00278	0.00333	0.00506	0.0043	0.00869	0.01514
606.278	-0.01367	-0.00945	-0.00279	0.00324	0.00497	0.00427	0.0088	0.01538
606.851	-0.01372	-0.00954	-0.00287	0.00317	0.00493	0.00425	0.00889	0.01568
607.424	-0.01379	-0.00963	-0.00298	0.00307	0.00489	0.00422	0.00901	0.0159
607.996	-0.01388	-0.00968	-0.00306	0.00299	0.00483	0.00417	0.00918	0.01616
608.569	-0.01386	-0.00972	-0.00321	0.00295	0.00478	0.00419	0.00932	0.01639
609.142	-0.01384	-0.00973	-0.00331	0.00295	0.00474	0.00421	0.00946	0.01667
609.715	-0.01392	-0.00983	-0.00336	0.00279	0.00469	0.00419	0.00954	0.01689
610.287	-0.01395	-0.00986	-0.00341	0.00274	0.00462	0.00423	0.0097	0.01714
610.86	-0.01396	-0.0099	-0.00348	0.0027	0.00455	0.00426	0.0098	0.0174
611.432	-0.01394	-0.00995	-0.00353	0.00264	0.0045	0.00422	0.00991	0.01767
612.005	-0.01397	-0.01	-0.00357	0.00259	0.00439	0.00421	0.00989	0.01789
612.577	-0.014	-0.01003	-0.00367	0.00243	0.00429	0.00418	0.00995	0.01801
613.15	-0.01404	-0.01014	-0.00381	0.00234	0.00414	0.00409	0.01002	0.01817
613.722	-0.01412	-0.01029	-0.00391	0.00227	0.00405	0.00403	0.0101	0.01836
614.294	-0.01421	-0.01037	-0.00409	0.00217	0.00394	0.00398	0.01023	0.01849
614.867	-0.0143	-0.0105	-0.00421	0.00207	0.0038	0.00399	0.01022	0.0186
615.439	-0.01431	-0.01057	-0.00434	0.00202	0.00374	0.00404	0.01034	0.01878
616.011	-0.01437	-0.01064	-0.00451	0.00188	0.00361	0.00397	0.01043	0.01891
616.583	-0.0144	-0.01065	-0.00461	0.00174	0.0036	0.00388	0.01044	0.01908
617.156	-0.0144	-0.0107	-0.00467	0.00165	0.00347	0.00385	0.01049	0.01923
617.728	-0.01444	-0.01084	-0.00476	0.00154	0.00333	0.00386	0.01053	0.01938
618.3	-0.0144	-0.01082	-0.00478	0.00151	0.00328	0.0039	0.01062	0.01953
618.872	-0.01441	-0.0108	-0.00483	0.00148	0.00316	0.00388	0.01074	0.01965
619.444	-0.01438	-0.01085	-0.00494	0.0014	0.00306	0.00385	0.0108	0.01979
620.016	-0.01428	-0.01085	-0.00498	0.00139	0.00301	0.00385	0.01088	0.02
620.587	-0.01431	-0.01093	-0.00506	0.00125	0.00287	0.00375	0.0109	0.02012
621.159	-0.01428	-0.01095	-0.00505	0.00117	0.00285	0.00375	0.01101	0.02024
621.731	-0.01426	-0.01096	-0.00506	0.0012	0.00274	0.00378	0.01109	0.02044
622.303	-0.01426	-0.01099	-0.00512	0.00111	0.00263	0.00373	0.01118	0.02058
622.875	-0.01429	-0.01103	-0.00517	0.00104	0.00249	0.00372	0.01127	0.02072
623.446	-0.0143	-0.01101	-0.00521	0.00104	0.00238	0.00378	0.01141	0.02091
624.018	-0.0143	-0.01106	-0.00531	9.8112E-4	0.00227	0.0037	0.01155	0.02107
624.589	-0.01432	-0.0111	-0.00533	9.79869E-4	0.0022	0.00367	0.01164	0.02128
625.161	-0.01428	-0.01111	-0.00537	9.33589E-4	0.00213	0.00367	0.01176	0.02153
625.733	-0.01425	-0.01118	-0.00541	9.29823E-4	0.00206	0.00367	0.01181	0.02171
626.304	-0.01416	-0.01115	-0.00536	9.93926E-4	0.00204	0.00368	0.01189	0.02197
626.875	-0.01418	-0.01125	-0.00541	9.35547E-4	0.00189	0.00356	0.01205	0.0222
627.447	-0.01415	-0.01125	-0.00544	8.59443E-4	0.00178	0.00344	0.01216	0.02249
628.018	-0.01411	-0.01125	-0.00545	8.83524E-4	0.00167	0.00343	0.0123	0.02275
628.589	-0.01417	-0.01135	-0.0055	8.19862E-4	0.00151	0.00338	0.01242	0.02294
629.161	-0.01422	-0.0114	-0.00559	7.07079E-4	0.00135	0.00333	0.01245	0.0232
629.732	-0.01424	-0.01135	-0.00558	7.72035E-4	0.00134	0.0033	0.01263	0.02354
630.303	-0.01424	-0.01139	-0.00569	7.63007E-4	0.0012	0.00313	0.01272	0.02387
630.874	-0.01421	-0.01137	-0.00571	7.43027E-4	0.00114	0.00308	0.01285	0.02425
631.445	-0.01422	-0.01143	-0.00569	6.74126E-4	0.00101	0.00297	0.01291	0.02459
632.016	-0.01429	-0.01158	-0.00578	5.45298E-4	8.35878E-4	0.00283	0.01297	0.02488
632.587	-0.01429	-0.01157	-0.00575	5.25817E-4	7.25124E-4	0.00287	0.01309	0.02531
633.158	-0.01439	-0.01167	-0.00585	4.97423E-4	5.60324E-4	0.0027	0.01317	0.02571
633.729	-0.01437	-0.01172	-0.00589	4.64187E-4	4.79391E-4	0.00256	0.01327	0.02605
634.3	-0.01439	-0.01184	-0.00592	4.60357E-4	3.89931E-4	0.00248	0.0133	0.02645
634.871	-0.01434	-0.01186	-0.00599	4.64746E-4	3.70254E-4	0.00239	0.01344	0.02702
635.442	-0.01431	-0.01192	-0.00597	3.76716E-4	3.3043E-4	0.00227	0.0135	0.02748
636.012	-0.01421	-0.0119	-0.00595	3.18143E-4	2.45367E-4	0.00218	0.01359	0.02796
636.583	-0.01418	-0.01186	-0.00594	2.85234E-4	1.81248E-4	0.00212	0.01371	0.02848
637.154	-0.0142	-0.01195	-0.00596	2.04633E-4	4.82391E-5	0.00199	0.01374	0.02891
637.724	-0.01423	-0.01199	-0.00603	1.30347E-4	-1.60657E-4	0.0018	0.01376	0.02935
638.295	-0.01415	-0.01193	-0.00604	9.85456E-5	-2.11269E-4	0.00179	0.01395	0.02997
638.865	-0.01408	-0.01183	-0.00608	4.816E-5	-3.32101E-4	0.00178	0.01404	0.03052
639.436	-0.01414	-0.01188	-0.00619	-2.94088E-5	-4.48493E-4	0.0016	0.01409	0.03099
640.006	-0.01416	-0.01194	-0.00623	-1.20122E-4	-6.26803E-4	0.00144	0.01404	0.03149
640.577	-0.01421	-0.01201	-0.00629	-2.33824E-4	-7.58054E-4	0.00132	0.01406	0.03198
641.147	-0.01414	-0.01207	-0.00636	-2.55996E-4	-7.90192E-4	0.00116	0.01409	0.0325
641.717	-0.0142	-0.01218	-0.00646	-4.35643E-4	-9.43813E-4	9.72051E-4	0.0141	0.03301
642.288	-0.0142	-0.01219	-0.00649	-5.25044E-4	-0.00104	8.73686E-4	0.01417	0.0336
642.858	-0.01426	-0.01226	-0.00661	-5.60258E-4	-0.0012	7.41896E-4	0.01418	0.03415
643.428	-0.01422	-0.0122	-0.0066	-5.82367E-4	-0.00124	7.36618E-4	0.01425	0.03479
643.998	-0.0143	-0.01221	-0.00664	-6.11703E-4	-0.00134	5.88596E-4	0.01432	0.03536
644.568	-0.01434	-0.01229	-0.00674	-6.98514E-4	-0.00146	3.52596E-4	0.01436	0.03589
645.138	-0.01435	-0.01234	-0.00678	-7.81968E-4	-0.00158	2.54208E-4	0.01432	0.03646
645.708	-0.01433	-0.01236	-0.00687	-8.69999E-4	-0.00165	2.01272E-4	0.01434	0.03707
646.278	-0.01429	-0.01231	-0.00687	-8.97676E-4	-0.00172	8.22499E-5	0.01448	0.03765
646.848	-0.01429	-0.0123	-0.0069	-9.44183E-4	-0.00183	-1.38086E-5	0.0145	0.03821
647.418	-0.01432	-0.01234	-0.00707	-0.00107	-0.00198	-1.76185E-4	0.01449	0.03874
647.988	-0.01431	-0.01236	-0.00717	-0.00107	-0.00202	-2.64836E-4	0.01452	0.03931
648.558	-0.01426	-0.01242	-0.00719	-0.00106	-0.00212	-4.04268E-4	0.01447	0.03989
649.128	-0.01418	-0.01236	-0.00726	-0.00107	-0.00218	-5.01597E-4	0.01453	0.04047
649.697	-0.01411	-0.01232	-0.00726	-0.00106	-0.00223	-5.2712E-4	0.01456	0.04103
650.267	-0.01419	-0.01243	-0.00734	-0.00121	-0.00233	-7.90453E-4	0.01442	0.0414
650.837	-0.01416	-0.01249	-0.00734	-0.00125	-0.00235	-9.97547E-4	0.01438	0.04184
651.406	-0.01416	-0.01253	-0.00735	-0.00129	-0.00245	-0.00116	0.01426	0.04223
651.976	-0.01406	-0.01244	-0.00739	-0.00129	-0.00242	-0.00121	0.01426	0.04271
652.545	-0.01403	-0.01244	-0.00745	-0.00128	-0.00247	-0.00138	0.01421	0.04316
653.115	-0.01397	-0.0124	-0.00744	-0.00128	-0.00254	-0.00143	0.01418	0.04361
653.684	-0.01397	-0.01242	-0.00751	-0.00133	-0.00265	-0.00159	0.0141	0.044
654.254	-0.01394	-0.01242	-0.00758	-0.00138	-0.00272	-0.00172	0.01394	0.04433
654.823	-0.01396	-0.0125	-0.0076	-0.00145	-0.00283	-0.00192	0.01381	0.04466
655.392	-0.01396	-0.01254	-0.00764	-0.00146	-0.00291	-0.00208	0.01369	0.04496
655.961	-0.01389	-0.01257	-0.00768	-0.00153	-0.00297	-0.0022	0.01354	0.04529
656.531	-0.01387	-0.01256	-0.00771	-0.00161	-0.00304	-0.0023	0.01334	0.04561
657.1	-0.01381	-0.01246	-0.00769	-0.00161	-0.00304	-0.00238	0.01332	0.04595
657.669	-0.01378	-0.01241	-0.0077	-0.00159	-0.00306	-0.00251	0.01319	0.04629
658.238	-0.01377	-0.01245	-0.00778	-0.00167	-0.00317	-0.00268	0.013	0.04662
658.807	-0.0137	-0.01247	-0.00778	-0.0017	-0.00324	-0.00287	0.01286	0.04678
659.376	-0.01364	-0.01245	-0.00771	-0.00161	-0.00326	-0.00291	0.01275	0.04708
659.945	-0.0137	-0.0125	-0.00779	-0.00176	-0.00338	-0.00317	0.01249	0.04722
660.514	-0.01368	-0.01248	-0.00784	-0.00185	-0.00345	-0.00328	0.01231	0.04734
661.083	-0.01368	-0.01251	-0.00791	-0.00195	-0.00353	-0.00347	0.01206	0.04742
661.651	-0.01365	-0.01251	-0.00794	-0.00208	-0.00363	-0.00359	0.01185	0.04745
662.22	-0.01367	-0.01251	-0.00797	-0.00209	-0.00378	-0.00374	0.01165	0.04752
662.789	-0.01362	-0.01245	-0.00797	-0.00212	-0.00383	-0.00378	0.01147	0.04758
663.358	-0.01368	-0.01253	-0.00806	-0.00226	-0.00396	-0.00395	0.01122	0.04759
663.926	-0.01368	-0.01259	-0.00807	-0.00231	-0.0041	-0.00415	0.01096	0.04745
664.495	-0.01366	-0.01262	-0.00813	-0.0024	-0.00419	-0.00428	0.01068	0.04737
665.063	-0.01372	-0.01261	-0.0082	-0.00251	-0.00432	-0.0045	0.01034	0.04714
665.632	-0.01371	-0.01264	-0.00823	-0.00259	-0.00442	-0.00469	0.00999	0.04688
666.2	-0.01374	-0.01271	-0.00829	-0.0027	-0.00454	-0.00485	0.00964	0.04655
666.769	-0.01371	-0.01272	-0.00829	-0.00282	-0.00456	-0.005	0.00937	0.0462
667.337	-0.01373	-0.01271	-0.00836	-0.00298	-0.00464	-0.00517	0.00898	0.04575
667.905	-0.01365	-0.01266	-0.00837	-0.00303	-0.00467	-0.00532	0.00871	0.04527
668.474	-0.01361	-0.0127	-0.00847	-0.0031	-0.00473	-0.0055	0.00834	0.04468
669.042	-0.01363	-0.01276	-0.00858	-0.00325	-0.00492	-0.00569	0.00788	0.04392
669.61	-0.01365	-0.01282	-0.00865	-0.00338	-0.00501	-0.00595	0.00747	0.04312
670.178	-0.01367	-0.01287	-0.00871	-0.00347	-0.00513	-0.00608	0.00699	0.04223
670.746	-0.01379	-0.01295	-0.0089	-0.00362	-0.00524	-0.00631	0.00643	0.04127
671.314	-0.01379	-0.01294	-0.00894	-0.00378	-0.00532	-0.00645	0.00595	0.04027
671.882	-0.01371	-0.01292	-0.00897	-0.00379	-0.00536	-0.00658	0.00555	0.03931
672.45	-0.01369	-0.01289	-0.00898	-0.00382	-0.00546	-0.0067	0.00515	0.0382
673.018	-0.01377	-0.01294	-0.00904	-0.00391	-0.00556	-0.00689	0.00468	0.03701
673.586	-0.01376	-0.01296	-0.0091	-0.004	-0.00559	-0.00706	0.0042	0.03577
674.154	-0.01377	-0.01304	-0.0092	-0.00418	-0.00569	-0.00729	0.00365	0.03452
674.722	-0.01377	-0.01305	-0.00925	-0.00424	-0.00577	-0.0074	0.00316	0.03324
675.29	-0.01364	-0.013	-0.00924	-0.00429	-0.00578	-0.00749	0.00271	0.03194
675.857	-0.01362	-0.01296	-0.00937	-0.0044	-0.0058	-0.00762	0.00223	0.03062
676.425	-0.01358	-0.01294	-0.00942	-0.00453	-0.00594	-0.00778	0.00175	0.02919
676.993	-0.01354	-0.01299	-0.00949	-0.00464	-0.00599	-0.0079	0.00129	0.02783
677.56	-0.01348	-0.01299	-0.00948	-0.00475	-0.00602	-0.00795	8.77123E-4	0.02647
678.128	-0.01346	-0.01299	-0.00953	-0.00485	-0.00609	-0.0081	4.2733E-4	0.02509
678.695	-0.01349	-0.0131	-0.00964	-0.00497	-0.00625	-0.0083	-6.55777E-5	0.02363
679.263	-0.01346	-0.01309	-0.00969	-0.00506	-0.00628	-0.00843	-5.18512E-4	0.02226
679.83	-0.01348	-0.01309	-0.00974	-0.00514	-0.00639	-0.00854	-9.63032E-4	0.02089
680.397	-0.01348	-0.01311	-0.00978	-0.00525	-0.00646	-0.00873	-0.00137	0.01949
680.965	-0.01349	-0.01315	-0.00984	-0.00539	-0.00654	-0.00887	-0.00184	0.01813
681.532	-0.01357	-0.01323	-0.00999	-0.00559	-0.00672	-0.00907	-0.00232	0.01668
682.099	-0.01357	-0.0132	-0.01004	-0.00575	-0.00678	-0.00923	-0.00274	0.01533
682.666	-0.01358	-0.01329	-0.01007	-0.0059	-0.00695	-0.00939	-0.00316	0.01396
683.233	-0.01359	-0.01329	-0.01013	-0.00598	-0.00705	-0.00952	-0.00357	0.0126
683.801	-0.01372	-0.01335	-0.0102	-0.00614	-0.00718	-0.00969	-0.00403	0.01121
684.368	-0.01379	-0.01346	-0.01028	-0.00631	-0.00727	-0.00985	-0.00447	0.00989
684.935	-0.0138	-0.01349	-0.01039	-0.00646	-0.00737	-0.00999	-0.00493	0.00868
685.502	-0.01381	-0.0135	-0.01051	-0.00661	-0.00754	-0.01014	-0.00532	0.0075
686.068	-0.01382	-0.01355	-0.01056	-0.00675	-0.00768	-0.01027	-0.00571	0.00626
686.635	-0.01388	-0.01362	-0.01065	-0.00694	-0.00781	-0.01048	-0.00616	0.00502
687.202	-0.01398	-0.01371	-0.01075	-0.0071	-0.00797	-0.01067	-0.00657	0.00383
687.769	-0.01402	-0.01377	-0.0108	-0.00723	-0.00806	-0.01076	-0.00691	0.00271
688.336	-0.01409	-0.01386	-0.01086	-0.00743	-0.00818	-0.01086	-0.00731	0.00163
688.902	-0.01413	-0.01385	-0.01098	-0.00757	-0.00829	-0.011	-0.00766	6.03865E-4
689.469	-0.01425	-0.01391	-0.01109	-0.00768	-0.00841	-0.01119	-0.008	-4.01997E-4
690.036	-0.01423	-0.01391	-0.01114	-0.00781	-0.00844	-0.01126	-0.00827	-0.00131
690.602	-0.01422	-0.01384	-0.01119	-0.00791	-0.00851	-0.01132	-0.00853	-0.00211
691.169	-0.01426	-0.01389	-0.01126	-0.008	-0.00867	-0.01145	-0.00877	-0.00294
691.735	-0.01431	-0.01395	-0.01134	-0.00815	-0.00878	-0.01149	-0.00906	-0.00375
692.302	-0.01434	-0.01404	-0.01144	-0.0083	-0.00886	-0.01156	-0.00939	-0.00454
692.868	-0.01436	-0.01402	-0.01144	-0.00837	-0.00888	-0.01168	-0.00959	-0.00514
693.434	-0.01432	-0.014	-0.01144	-0.0084	-0.00893	-0.01162	-0.00976	-0.00569
694.001	-0.01419	-0.01396	-0.0114	-0.00846	-0.00894	-0.01158	-0.00988	-0.00626
694.567	-0.01423	-0.014	-0.01145	-0.00855	-0.00904	-0.01168	-0.01012	-0.00683
695.133	-0.01414	-0.01399	-0.01147	-0.00868	-0.00905	-0.01172	-0.01021	-0.0073
695.699	-0.01405	-0.01396	-0.01147	-0.00879	-0.00908	-0.0117	-0.01032	-0.00775
696.265	-0.01398	-0.01392	-0.01149	-0.00886	-0.00919	-0.01174	-0.01051	-0.00819
696.831	-0.01402	-0.01392	-0.01152	-0.00898	-0.00928	-0.01183	-0.01062	-0.00866
697.397	-0.01405	-0.01394	-0.01158	-0.0091	-0.00932	-0.01187	-0.01077	-0.00916
697.963	-0.01397	-0.01388	-0.01157	-0.00913	-0.00928	-0.01187	-0.01082	-0.00946
698.529	-0.01394	-0.01387	-0.01164	-0.00923	-0.0094	-0.01192	-0.01094	-0.00987
699.095	-0.01394	-0.01392	-0.0117	-0.00937	-0.0095	-0.012	-0.0111	-0.01026
699.661	-0.01392	-0.01392	-0.01172	-0.00942	-0.00953	-0.01207	-0.01125	-0.01053
700.227	-0.01393	-0.01388	-0.01173	-0.00947	-0.00954	-0.01218	-0.01133	-0.01081
700.792	-0.01388	-0.0139	-0.01171	-0.00951	-0.0096	-0.01219	-0.01135	-0.01109
701.358	-0.01384	-0.0139	-0.01171	-0.00954	-0.00966	-0.0122	-0.01148	-0.0113
701.924	-0.01382	-0.01389	-0.01175	-0.00959	-0.00976	-0.01221	-0.01158	-0.01152
702.489	-0.01381	-0.01393	-0.01177	-0.00965	-0.00979	-0.01222	-0.01168	-0.01178
703.055	-0.0139	-0.014	-0.0119	-0.00978	-0.00987	-0.01229	-0.01187	-0.01208
703.62	-0.01393	-0.014	-0.01193	-0.00991	-0.00994	-0.01244	-0.01203	-0.01234
704.186	-0.01394	-0.01398	-0.01197	-0.00995	-0.01007	-0.01251	-0.01207	-0.01253
704.751	-0.01394	-0.01399	-0.01205	-0.01003	-0.01021	-0.01254	-0.01212	-0.01278
705.317	-0.01401	-0.01405	-0.01214	-0.0101	-0.01026	-0.01271	-0.01223	-0.01301
705.882	-0.01409	-0.01411	-0.0122	-0.01017	-0.01035	-0.01282	-0.01234	-0.0132
706.447	-0.01402	-0.01402	-0.01214	-0.01016	-0.0103	-0.01279	-0.01231	-0.01329
707.013	-0.01405	-0.01407	-0.01218	-0.0102	-0.01041	-0.01284	-0.01237	-0.01347
707.578	-0.01403	-0.01412	-0.01218	-0.01022	-0.01036	-0.0129	-0.01237	-0.01358
708.143	-0.01403	-0.01412	-0.0122	-0.01035	-0.01033	-0.01289	-0.01241	-0.0137
708.708	-0.01396	-0.01413	-0.0122	-0.01033	-0.01033	-0.01285	-0.01241	-0.01381
709.273	-0.01388	-0.01413	-0.01219	-0.01037	-0.01036	-0.01289	-0.01241	-0.01383
709.838	-0.01394	-0.01421	-0.01222	-0.01047	-0.01045	-0.01296	-0.01252	-0.01402
710.403	-0.01389	-0.01416	-0.01221	-0.01041	-0.01038	-0.01289	-0.01246	-0.01407
710.968	-0.01393	-0.01414	-0.01225	-0.01052	-0.01043	-0.0129	-0.01249	-0.01414
711.533	-0.01387	-0.01416	-0.01227	-0.01054	-0.01054	-0.01288	-0.01245	-0.01429
712.098	-0.01384	-0.01413	-0.01225	-0.01055	-0.01058	-0.01282	-0.01244	-0.01433
712.663	-0.01391	-0.01419	-0.01234	-0.0107	-0.01063	-0.01292	-0.01252	-0.01446
713.227	-0.01388	-0.01421	-0.0124	-0.01081	-0.01069	-0.01295	-0.01253	-0.0146
713.792	-0.01384	-0.01424	-0.0124	-0.01084	-0.01067	-0.01299	-0.01253	-0.01466
714.357	-0.01377	-0.01417	-0.01236	-0.01087	-0.01065	-0.01295	-0.01249	-0.0146
714.921	-0.01364	-0.01412	-0.0123	-0.01084	-0.01063	-0.01291	-0.01238	-0.01454
715.486	-0.01352	-0.01408	-0.01226	-0.01086	-0.01067	-0.01287	-0.01232	-0.0145
716.05	-0.01349	-0.01401	-0.01226	-0.01089	-0.01068	-0.01285	-0.0123	-0.01451
716.615	-0.0134	-0.01401	-0.01221	-0.0109	-0.01066	-0.01277	-0.0123	-0.01453
717.179	-0.01332	-0.01392	-0.01211	-0.01093	-0.01062	-0.01271	-0.01226	-0.01455
717.744	-0.01324	-0.01391	-0.01211	-0.01099	-0.01064	-0.01268	-0.01225	-0.01455
718.308	-0.0133	-0.01396	-0.0122	-0.01106	-0.01068	-0.01269	-0.01231	-0.01461
718.872	-0.01335	-0.01396	-0.01224	-0.01114	-0.01072	-0.01279	-0.01245	-0.01468
719.437	-0.01334	-0.01392	-0.01227	-0.01116	-0.01084	-0.0128	-0.01251	-0.0147
720.001	-0.0133	-0.01393	-0.01228	-0.01118	-0.01086	-0.01283	-0.01249	-0.01473
720.565	-0.01325	-0.01387	-0.01223	-0.01117	-0.01084	-0.01286	-0.01252	-0.01468
721.129	-0.01322	-0.01387	-0.0122	-0.01109	-0.01078	-0.0128	-0.01249	-0.01465
721.693	-0.0131	-0.01376	-0.01218	-0.01101	-0.01074	-0.01272	-0.01239	-0.01456
722.257	-0.01305	-0.01376	-0.01217	-0.01106	-0.01074	-0.0128	-0.01239	-0.01453
722.821	-0.01294	-0.0137	-0.01205	-0.01104	-0.01066	-0.01274	-0.01239	-0.01449
723.385	-0.01288	-0.01359	-0.012	-0.01098	-0.01055	-0.01275	-0.01231	-0.01439
723.949	-0.01279	-0.01356	-0.01193	-0.01091	-0.01046	-0.01266	-0.01224	-0.01431
724.513	-0.01266	-0.01335	-0.01177	-0.01078	-0.01036	-0.01251	-0.01215	-0.01419
725.076	-0.01259	-0.01328	-0.01168	-0.01079	-0.0103	-0.0125	-0.01211	-0.01407
725.64	-0.01253	-0.01317	-0.01161	-0.01082	-0.01028	-0.01251	-0.01206	-0.01409
726.204	-0.01248	-0.01313	-0.01154	-0.01074	-0.01026	-0.01253	-0.01205	-0.01409
726.767	-0.01236	-0.01303	-0.01144	-0.01065	-0.01018	-0.01247	-0.012	-0.01399
727.331	-0.01227	-0.0129	-0.01129	-0.01055	-0.01	-0.01232	-0.01188	-0.01383
727.895	-0.01221	-0.01276	-0.01114	-0.01046	-0.00981	-0.01216	-0.01183	-0.01371
728.458	-0.0121	-0.01267	-0.01105	-0.01038	-0.00972	-0.01212	-0.01176	-0.0136
729.022	-0.01198	-0.01257	-0.01101	-0.01025	-0.00972	-0.01208	-0.0117	-0.01349
729.585	-0.01195	-0.01249	-0.01095	-0.01022	-0.00967	-0.01203	-0.01162	-0.01343
730.148	-0.01177	-0.01234	-0.01085	-0.01014	-0.00959	-0.0119	-0.01148	-0.01333
730.712	-0.01161	-0.01221	-0.01081	-0.01011	-0.00951	-0.01179	-0.01135	-0.01321
731.275	-0.01155	-0.01214	-0.01076	-0.01006	-0.0095	-0.01173	-0.01129	-0.01315
731.838	-0.01148	-0.01208	-0.01072	-0.01002	-0.00947	-0.01166	-0.01125	-0.01309
732.401	-0.01145	-0.01205	-0.01069	-0.01002	-0.00942	-0.0116	-0.01121	-0.01304
732.965	-0.01146	-0.0119	-0.01062	-0.00999	-0.00944	-0.01163	-0.01121	-0.01303
733.528	-0.01149	-0.01186	-0.01059	-0.01001	-0.0095	-0.01158	-0.01124	-0.01301
734.091	-0.01137	-0.0117	-0.0105	-0.00992	-0.00947	-0.01154	-0.01108	-0.01288
734.654	-0.01128	-0.01161	-0.01041	-0.00979	-0.00938	-0.01146	-0.01094	-0.01278
735.217	-0.01123	-0.01155	-0.01037	-0.00979	-0.00933	-0.01145	-0.01096	-0.01274
735.779	-0.01114	-0.01156	-0.01034	-0.00978	-0.00931	-0.01145	-0.011	-0.01274
736.342	-0.01105	-0.01155	-0.01033	-0.00971	-0.00928	-0.01143	-0.01103	-0.01271
736.905	-0.01102	-0.01144	-0.01025	-0.00965	-0.00926	-0.01136	-0.01094	-0.01263
737.468	-0.01097	-0.01139	-0.01023	-0.00956	-0.00925	-0.01127	-0.0109	-0.01257
738.031	-0.01083	-0.01129	-0.01016	-0.00953	-0.00917	-0.01113	-0.0108	-0.01243
738.593	-0.0108	-0.01123	-0.01018	-0.00952	-0.00922	-0.01113	-0.01079	-0.01246
739.156	-0.01077	-0.01127	-0.01022	-0.00947	-0.00922	-0.01112	-0.01077	-0.0125
739.718	-0.01062	-0.0113	-0.01014	-0.00935	-0.00923	-0.01109	-0.01069	-0.01242
740.281	-0.01058	-0.01122	-0.0101	-0.00931	-0.00915	-0.01103	-0.01066	-0.01237
740.843	-0.01046	-0.01119	-0.01004	-0.00933	-0.00909	-0.01098	-0.01066	-0.01239
741.406	-0.01038	-0.0111	-0.00999	-0.00926	-0.00904	-0.01098	-0.01065	-0.01231
741.968	-0.01034	-0.01105	-0.00996	-0.00922	-0.009	-0.01093	-0.01058	-0.01225
742.531	-0.01034	-0.01108	-0.00995	-0.00926	-0.00911	-0.01098	-0.01067	-0.01228
743.093	-0.01029	-0.01104	-0.00989	-0.00923	-0.00903	-0.0109	-0.01064	-0.01225
743.655	-0.01026	-0.01094	-0.00985	-0.00917	-0.00899	-0.01098	-0.01063	-0.01224
744.217	-0.01019	-0.01094	-0.00985	-0.00923	-0.00902	-0.01098	-0.01064	-0.01227
744.78	-0.01005	-0.01096	-0.0098	-0.00923	-0.00899	-0.01095	-0.01055	-0.01224
745.342	-0.01004	-0.01099	-0.0098	-0.00933	-0.00894	-0.01097	-0.01059	-0.01226
745.904	-0.0101	-0.01096	-0.00981	-0.00939	-0.00892	-0.01094	-0.01068	-0.01239
746.466	-0.01006	-0.01089	-0.00975	-0.00937	-0.00892	-0.01086	-0.01066	-0.0123
747.028	-0.01007	-0.01094	-0.00985	-0.00944	-0.00904	-0.01088	-0.01071	-0.01238
747.59	-0.01005	-0.01088	-0.00981	-0.00936	-0.00903	-0.01084	-0.0107	-0.01233
748.151	-0.01003	-0.01091	-0.00981	-0.00934	-0.00906	-0.01085	-0.01059	-0.0123
748.713	-0.01003	-0.01097	-0.00991	-0.00933	-0.00905	-0.01086	-0.01071	-0.01238
749.275	-0.01001	-0.01099	-0.00984	-0.00933	-0.00907	-0.01089	-0.01075	-0.01229
749.837	-0.0101	-0.01102	-0.00988	-0.00941	-0.00919	-0.01102	-0.01088	-0.01247
750.398	-0.01011	-0.01106	-0.00986	-0.00941	-0.00916	-0.011	-0.01086	-0.01248
750.96	-0.01012	-0.01103	-0.00987	-0.00951	-0.00923	-0.01109	-0.01089	-0.01252
751.522	-0.0101	-0.01102	-0.0099	-0.00961	-0.00923	-0.01117	-0.01092	-0.01265
752.083	-0.01015	-0.01106	-0.00998	-0.00967	-0.00933	-0.01132	-0.01098	-0.01273
752.645	-0.01025	-0.01108	-0.00996	-0.0097	-0.00934	-0.01131	-0.01097	-0.01273
753.206	-0.01022	-0.01106	-0.00988	-0.00971	-0.00934	-0.01134	-0.01098	-0.01274
753.768	-0.01028	-0.01106	-0.00992	-0.00975	-0.00935	-0.01145	-0.01108	-0.0128
754.329	-0.01029	-0.01109	-0.00991	-0.00973	-0.00924	-0.01146	-0.01099	-0.01279
754.89	-0.01039	-0.01116	-0.00999	-0.00978	-0.00935	-0.01154	-0.01111	-0.01281
755.452	-0.01036	-0.01114	-0.00999	-0.00981	-0.00938	-0.01151	-0.0111	-0.01283
756.013	-0.01038	-0.01115	-0.01	-0.00974	-0.00936	-0.01142	-0.01106	-0.01283
756.574	-0.01042	-0.0111	-0.01005	-0.00975	-0.00934	-0.0114	-0.01109	-0.01282
757.135	-0.01039	-0.01104	-0.01003	-0.00969	-0.00936	-0.01145	-0.01116	-0.01281
757.696	-0.01035	-0.01113	-0.01005	-0.00967	-0.00942	-0.01153	-0.01121	-0.01277
758.257	-0.01037	-0.01126	-0.01013	-0.00973	-0.0095	-0.0116	-0.01134	-0.01287
758.818	-0.01035	-0.01124	-0.01005	-0.00971	-0.00941	-0.01159	-0.01132	-0.0128
759.379	-0.0103	-0.01116	-0.01002	-0.00976	-0.00934	-0.01164	-0.0113	-0.01277
759.94	-0.0103	-0.01115	-0.00998	-0.00982	-0.00926	-0.01167	-0.01139	-0.01272
760.501	-0.01031	-0.01117	-0.00996	-0.0099	-0.00929	-0.0118	-0.01141	-0.01276
761.061	-0.01045	-0.01126	-0.01007	-0.00998	-0.00939	-0.01186	-0.01145	-0.01285
761.622	-0.01039	-0.01123	-0.01003	-0.00999	-0.00936	-0.01179	-0.01132	-0.01275
762.183	-0.01038	-0.01128	-0.01003	-0.01001	-0.0094	-0.01182	-0.01137	-0.01277
762.744	-0.01036	-0.0113	-0.01005	-0.01008	-0.00938	-0.01185	-0.01138	-0.01277
763.304	-0.01043	-0.01136	-0.01011	-0.01012	-0.00951	-0.01192	-0.01141	-0.01284
763.865	-0.01036	-0.01135	-0.01009	-0.01011	-0.00946	-0.01184	-0.01139	-0.01276
764.425	-0.0104	-0.01148	-0.01023	-0.01015	-0.00951	-0.0119	-0.01138	-0.01277
764.986	-0.01037	-0.01146	-0.01027	-0.01021	-0.00954	-0.01188	-0.01142	-0.01278
765.546	-0.0104	-0.01149	-0.01021	-0.01021	-0.00951	-0.01183	-0.01137	-0.01269
766.106	-0.01033	-0.01141	-0.01018	-0.01008	-0.00943	-0.01173	-0.01135	-0.01264
766.667	-0.01018	-0.01134	-0.01009	-0.01004	-0.00937	-0.01159	-0.01123	-0.01257
767.227	-0.01023	-0.01144	-0.01011	-0.01006	-0.00941	-0.01153	-0.01126	-0.01254
767.787	-0.01022	-0.01142	-0.01009	-0.01018	-0.00942	-0.01163	-0.0114	-0.01253
768.347	-0.0102	-0.01145	-0.01009	-0.01013	-0.00945	-0.01163	-0.01142	-0.01249
768.907	-0.01016	-0.0115	-0.01009	-0.0101	-0.00939	-0.01155	-0.0114	-0.01248
769.467	-0.01023	-0.01143	-0.01015	-0.01014	-0.00934	-0.01153	-0.01141	-0.01245
770.028	-0.01016	-0.01137	-0.01012	-0.01017	-0.00928	-0.01149	-0.01135	-0.01246
770.587	-0.01027	-0.01141	-0.01019	-0.01021	-0.00934	-0.01157	-0.01136	-0.01255
771.147	-0.01027	-0.01148	-0.0103	-0.01034	-0.00949	-0.01161	-0.01143	-0.01269
771.707	-0.01032	-0.01153	-0.01036	-0.01041	-0.00962	-0.01166	-0.01143	-0.0128
772.267	-0.01029	-0.01144	-0.01036	-0.0104	-0.00963	-0.01159	-0.01139	-0.01287
772.827	-0.01024	-0.0115	-0.01034	-0.01045	-0.00961	-0.01164	-0.0114	-0.01285
773.387	-0.01032	-0.0116	-0.01044	-0.01052	-0.00973	-0.01176	-0.01157	-0.0129
773.946	-0.01038	-0.01168	-0.01053	-0.01064	-0.00989	-0.01186	-0.01172	-0.01302
774.506	-0.01041	-0.0116	-0.01052	-0.01054	-0.0099	-0.01188	-0.01173	-0.013
775.066	-0.0105	-0.01163	-0.0106	-0.01071	-0.00994	-0.01197	-0.01184	-0.01295
775.625	-0.01058	-0.01163	-0.01068	-0.01079	-0.01004	-0.01203	-0.01191	-0.01304
776.185	-0.0106	-0.01153	-0.01072	-0.01082	-0.01006	-0.01208	-0.01197	-0.01313
776.744	-0.01077	-0.01161	-0.01083	-0.01085	-0.01015	-0.01217	-0.0121	-0.01328
777.303	-0.01069	-0.01169	-0.01078	-0.0109	-0.01024	-0.01231	-0.01214	-0.0134
777.863	-0.0108	-0.01173	-0.01082	-0.01107	-0.01044	-0.01242	-0.0122	-0.01349
778.422	-0.01091	-0.0119	-0.01094	-0.0112	-0.01058	-0.0126	-0.01233	-0.01368
778.981	-0.01094	-0.01186	-0.01104	-0.01126	-0.01067	-0.01275	-0.01242	-0.01379
779.54	-0.01091	-0.01194	-0.01101	-0.01124	-0.01068	-0.01266	-0.01232	-0.01385
780.1	-0.01094	-0.01201	-0.01108	-0.01142	-0.01071	-0.01281	-0.01234	-0.01391
780.659	-0.0109	-0.01197	-0.01102	-0.01148	-0.01076	-0.01275	-0.01227	-0.01397
781.218	-0.0109	-0.01201	-0.01101	-0.01149	-0.01078	-0.01281	-0.0123	-0.01405
781.777	-0.01098	-0.01215	-0.01116	-0.01149	-0.01097	-0.01293	-0.01243	-0.01421
782.336	-0.01094	-0.01222	-0.01119	-0.01153	-0.01102	-0.01294	-0.01245	-0.01423
782.895	-0.01102	-0.01229	-0.01121	-0.01152	-0.01108	-0.01303	-0.01254	-0.01429
783.453	-0.01097	-0.01233	-0.01128	-0.01153	-0.01109	-0.01303	-0.01252	-0.01422
784.012	-0.01093	-0.01231	-0.01138	-0.01157	-0.01101	-0.01299	-0.0125	-0.01415
784.571	-0.01096	-0.01225	-0.01141	-0.01152	-0.01104	-0.01299	-0.01256	-0.01423
785.13	-0.01105	-0.01212	-0.0115	-0.01149	-0.011	-0.013	-0.01261	-0.01428
785.688	-0.01107	-0.01213	-0.01148	-0.01153	-0.01086	-0.01304	-0.01259	-0.01423
786.247	-0.01108	-0.01224	-0.01157	-0.01164	-0.01096	-0.01301	-0.01271	-0.0143
786.806	-0.01095	-0.01224	-0.01144	-0.01155	-0.01087	-0.01297	-0.01266	-0.01427
787.364	-0.01097	-0.01223	-0.01142	-0.0116	-0.01089	-0.01304	-0.01274	-0.01421
787.923	-0.01092	-0.01233	-0.01134	-0.01168	-0.01092	-0.01303	-0.01279	-0.01421
788.481	-0.01092	-0.0124	-0.01139	-0.01173	-0.01096	-0.01307	-0.01288	-0.01425
789.039	-0.01094	-0.01239	-0.01153	-0.0118	-0.01103	-0.01301	-0.0129	-0.01424
789.598	-0.01101	-0.01238	-0.0116	-0.01183	-0.01096	-0.01309	-0.01296	-0.01419
790.156	-0.01114	-0.01242	-0.01163	-0.01183	-0.01102	-0.01316	-0.01301	-0.01421
790.714	-0.01107	-0.01234	-0.01142	-0.01181	-0.01095	-0.01312	-0.0129	-0.01404
791.272	-0.01112	-0.01238	-0.01143	-0.01184	-0.01109	-0.01321	-0.01302	-0.01403
791.831	-0.01121	-0.01235	-0.01147	-0.01181	-0.01108	-0.01325	-0.01307	-0.01405
792.389	-0.01133	-0.01253	-0.01161	-0.01187	-0.01116	-0.01334	-0.01317	-0.01413
792.947	-0.01139	-0.01265	-0.01166	-0.01191	-0.01124	-0.01339	-0.01316	-0.0141
793.505	-0.0114	-0.01253	-0.01157	-0.01194	-0.01116	-0.01333	-0.01312	-0.01402
794.063	-0.01148	-0.01248	-0.01159	-0.01192	-0.01119	-0.01334	-0.01303	-0.01388
794.62	-0.01151	-0.0125	-0.01168	-0.01196	-0.01122	-0.01329	-0.01302	-0.01387
795.178	-0.01154	-0.01247	-0.01155	-0.01198	-0.01125	-0.0133	-0.0131	-0.01403
795.736	-0.01172	-0.01264	-0.01155	-0.01199	-0.01132	-0.01344	-0.01326	-0.01413
796.294	-0.01167	-0.01278	-0.01162	-0.01211	-0.01135	-0.01352	-0.01331	-0.01422
796.852	-0.0116	-0.01284	-0.0116	-0.0121	-0.01129	-0.01347	-0.01322	-0.01424
797.409	-0.01165	-0.01285	-0.01159	-0.01208	-0.01141	-0.01347	-0.01321	-0.01432
797.967	-0.01174	-0.0128	-0.01169	-0.01206	-0.01145	-0.0135	-0.01328	-0.01434
798.524	-0.01189	-0.01284	-0.01187	-0.01221	-0.01157	-0.01366	-0.01329	-0.01448
799.082	-0.01193	-0.01284	-0.01188	-0.01219	-0.01157	-0.0137	-0.01324	-0.01457
799.639	-0.01202	-0.01283	-0.01197	-0.01218	-0.01158	-0.01376	-0.01321	-0.0146
800.197	-0.01203	-0.01284	-0.01207	-0.01223	-0.01155	-0.01377	-0.01315	-0.0146
800.754	-0.01215	-0.01301	-0.01214	-0.01222	-0.01158	-0.01376	-0.01328	-0.01466
801.311	-0.01205	-0.01301	-0.01219	-0.01219	-0.01156	-0.01374	-0.01322	-0.01479
801.869	-0.0118	-0.01293	-0.0121	-0.01215	-0.01139	-0.01357	-0.01312	-0.01464
802.426	-0.01191	-0.01306	-0.01223	-0.0121	-0.01138	-0.01364	-0.01318	-0.01471
802.983	-0.01194	-0.01309	-0.0123	-0.01202	-0.01129	-0.01361	-0.01319	-0.01476
803.54	-0.012	-0.01307	-0.01229	-0.01204	-0.01135	-0.01366	-0.01314	-0.01473
804.097	-0.01201	-0.01307	-0.01226	-0.012	-0.01133	-0.01369	-0.01317	-0.01471
804.654	-0.012	-0.01305	-0.01235	-0.01212	-0.01134	-0.01378	-0.01322	-0.0148
805.211	-0.01202	-0.01316	-0.01243	-0.01218	-0.01138	-0.01386	-0.01328	-0.01486
805.768	-0.01202	-0.01321	-0.01235	-0.01228	-0.01136	-0.01393	-0.01336	-0.01499
806.325	-0.01204	-0.01315	-0.01237	-0.01221	-0.01117	-0.01385	-0.01336	-0.0149
806.882	-0.01208	-0.01321	-0.01244	-0.01227	-0.01118	-0.01382	-0.01338	-0.01484
807.438	-0.01204	-0.01316	-0.01247	-0.01224	-0.01124	-0.01371	-0.01324	-0.01479
807.995	-0.012	-0.01303	-0.0123	-0.01218	-0.01119	-0.01365	-0.01313	-0.01463
808.552	-0.01207	-0.01314	-0.01244	-0.01228	-0.01131	-0.01375	-0.01326	-0.01471
809.108	-0.01188	-0.013	-0.01245	-0.01226	-0.0112	-0.01368	-0.01318	-0.01451
809.665	-0.01174	-0.013	-0.01233	-0.01225	-0.01116	-0.01372	-0.01301	-0.01445
810.221	-0.01168	-0.01304	-0.01225	-0.0121	-0.01114	-0.01355	-0.01302	-0.01427
810.778	-0.01164	-0.01309	-0.01223	-0.01211	-0.01116	-0.0135	-0.01309	-0.01433
811.334	-0.01149	-0.01309	-0.01215	-0.01195	-0.01111	-0.01345	-0.01303	-0.01415
811.89	-0.01152	-0.01295	-0.01206	-0.01199	-0.01111	-0.01353	-0.01295	-0.01414
812.447	-0.01144	-0.01286	-0.01199	-0.01198	-0.01113	-0.01352	-0.01293	-0.01414
813.003	-0.01134	-0.01285	-0.01187	-0.0119	-0.01118	-0.01365	-0.01301	-0.01403
813.559	-0.01151	-0.01285	-0.012	-0.01193	-0.01118	-0.01376	-0.01305	-0.01416
814.115	-0.01151	-0.0128	-0.01219	-0.01207	-0.01136	-0.01384	-0.0131	-0.01426
814.672	-0.01145	-0.01277	-0.01212	-0.01208	-0.01135	-0.01381	-0.01305	-0.01429
815.228	-0.0113	-0.01276	-0.01211	-0.01206	-0.01134	-0.0138	-0.01308	-0.01427
815.784	-0.01132	-0.01272	-0.01207	-0.01208	-0.0113	-0.0139	-0.0131	-0.01423
816.34	-0.01132	-0.0126	-0.01195	-0.012	-0.0113	-0.01373	-0.01308	-0.01415
816.895	-0.01134	-0.0126	-0.01194	-0.01192	-0.0113	-0.01364	-0.01306	-0.01412
817.451	-0.0112	-0.01248	-0.01182	-0.0118	-0.01121	-0.01352	-0.01304	-0.01395
818.007	-0.01125	-0.01248	-0.01181	-0.01192	-0.01143	-0.01367	-0.01316	-0.01411
818.563	-0.01115	-0.01247	-0.01182	-0.01189	-0.01138	-0.01376	-0.01304	-0.01407
819.119	-0.01114	-0.01256	-0.01185	-0.01196	-0.01149	-0.01383	-0.01316	-0.01414
819.674	-0.01106	-0.0125	-0.0119	-0.01192	-0.01141	-0.01377	-0.01317	-0.01413
820.23	-0.01101	-0.01241	-0.01177	-0.01188	-0.01137	-0.01374	-0.01316	-0.01413
820.785	-0.01112	-0.01247	-0.01164	-0.01186	-0.01128	-0.01369	-0.01314	-0.01414
821.341	-0.01105	-0.01241	-0.01179	-0.01189	-0.01132	-0.01357	-0.01323	-0.01423
821.896	-0.01109	-0.01237	-0.01181	-0.01196	-0.01131	-0.01355	-0.01328	-0.01429
822.452	-0.01097	-0.01229	-0.01183	-0.0119	-0.01127	-0.01347	-0.01316	-0.01415
823.007	-0.01101	-0.01237	-0.01196	-0.01196	-0.01118	-0.01343	-0.01326	-0.01419
823.562	-0.01082	-0.01233	-0.01193	-0.01171	-0.01108	-0.01332	-0.01318	-0.0141
824.118	-0.01084	-0.01233	-0.01185	-0.01174	-0.011	-0.01331	-0.0131	-0.01407
824.673	-0.01075	-0.01227	-0.01183	-0.01166	-0.0108	-0.01313	-0.013	-0.01392
825.228	-0.01069	-0.01227	-0.01173	-0.01166	-0.01091	-0.01306	-0.01306	-0.01392
825.783	-0.0106	-0.01214	-0.01145	-0.01154	-0.01066	-0.01297	-0.01294	-0.01385
826.338	-0.01051	-0.01192	-0.01131	-0.01138	-0.01057	-0.0128	-0.01281	-0.0137
826.893	-0.01041	-0.01189	-0.01126	-0.01136	-0.01048	-0.01265	-0.01277	-0.01363
827.448	-0.01032	-0.01171	-0.01108	-0.01118	-0.01037	-0.01244	-0.01257	-0.01347
828.003	-0.01013	-0.01163	-0.0109	-0.01107	-0.01018	-0.01231	-0.01239	-0.01326
828.558	-0.0099	-0.01144	-0.01079	-0.01091	-0.01003	-0.01211	-0.01234	-0.01318
829.113	-0.00984	-0.01138	-0.01089	-0.01092	-0.01003	-0.01206	-0.01225	-0.0132
829.668	-0.00976	-0.0114	-0.01072	-0.0108	-0.00992	-0.0119	-0.01203	-0.01303
830.222	-0.00957	-0.01115	-0.01039	-0.0105	-0.00966	-0.01165	-0.01186	-0.01275
830.777	-0.0094	-0.0109	-0.0103	-0.01035	-0.00948	-0.01152	-0.01178	-0.01266
831.331	-0.00946	-0.01079	-0.01014	-0.01037	-0.00942	-0.0115	-0.01167	-0.01251
831.886	-0.00934	-0.01067	-0.01007	-0.01023	-0.00926	-0.01135	-0.01148	-0.01242
832.441	-0.00931	-0.01062	-0.00995	-0.01024	-0.0093	-0.01119	-0.01149	-0.0124
832.995	-0.00923	-0.01038	-0.0097	-0.01002	-0.00905	-0.011	-0.01131	-0.01221
833.549	-0.00912	-0.01025	-0.00956	-0.00986	-0.00893	-0.0109	-0.01118	-0.01209
834.104	-0.009	-0.0102	-0.00934	-0.00978	-0.00883	-0.01083	-0.01107	-0.01199
834.658	-0.00905	-0.00987	-0.00913	-0.00971	-0.00886	-0.0106	-0.01094	-0.01198
835.212	-0.00892	-0.00979	-0.00908	-0.00968	-0.00883	-0.01056	-0.01089	-0.01189
835.766	-0.00877	-0.00967	-0.00903	-0.00962	-0.00874	-0.01043	-0.01089	-0.01182
836.321	-0.00875	-0.00971	-0.00899	-0.00964	-0.00886	-0.01039	-0.01088	-0.01183
836.875	-0.00862	-0.00956	-0.00883	-0.00936	-0.00861	-0.01024	-0.01075	-0.01158
837.429	-0.00842	-0.00944	-0.00881	-0.00919	-0.00853	-0.0101	-0.01061	-0.01141
837.983	-0.00836	-0.00959	-0.00887	-0.00925	-0.00849	-0.01008	-0.01066	-0.01142
838.537	-0.0083	-0.00946	-0.00883	-0.00914	-0.00832	-0.00986	-0.01057	-0.01137
839.091	-0.00817	-0.00942	-0.00884	-0.00909	-0.00826	-0.00977	-0.01053	-0.01139
839.644	-0.00812	-0.00932	-0.00873	-0.00894	-0.00811	-0.0097	-0.01038	-0.01133
840.198	-0.00807	-0.00927	-0.00864	-0.00888	-0.00803	-0.00977	-0.0102	-0.01123
840.752	-0.00797	-0.00911	-0.00851	-0.00884	-0.00792	-0.00964	-0.01012	-0.01108
841.306	-0.00794	-0.00902	-0.00852	-0.0088	-0.00787	-0.0096	-0.01015	-0.01114
841.859	-0.00801	-0.00893	-0.00847	-0.00888	-0.00789	-0.00951	-0.01011	-0.01097
842.413	-0.00788	-0.00878	-0.00824	-0.00872	-0.00771	-0.00935	-0.00982	-0.01074
842.966	-0.0078	-0.00888	-0.00817	-0.00869	-0.0077	-0.00921	-0.00985	-0.01067
843.52	-0.00774	-0.00887	-0.0081	-0.00868	-0.00769	-0.00919	-0.00981	-0.01062
844.073	-0.0079	-0.00885	-0.00819	-0.00874	-0.00769	-0.00935	-0.00986	-0.01069
844.627	-0.0078	-0.00888	-0.00817	-0.00877	-0.00774	-0.00936	-0.00983	-0.01057
845.18	-0.00779	-0.00874	-0.00812	-0.00878	-0.00759	-0.00932	-0.0097	-0.01046
845.733	-0.00791	-0.00859	-0.00816	-0.00872	-0.00752	-0.00936	-0.00971	-0.01039
846.287	-0.00784	-0.00855	-0.00816	-0.0087	-0.00747	-0.00939	-0.00969	-0.01033
846.84	-0.00784	-0.00843	-0.00805	-0.00867	-0.00746	-0.0093	-0.00958	-0.01026
847.393	-0.00786	-0.00838	-0.00795	-0.00861	-0.00748	-0.00916	-0.00948	-0.01012
847.946	-0.0078	-0.00813	-0.00778	-0.00847	-0.00721	-0.00886	-0.00921	-0.00992
848.499	-0.00762	-0.00807	-0.00776	-0.00859	-0.00721	-0.00877	-0.00911	-0.00997
849.052	-0.00775	-0.00811	-0.00787	-0.00872	-0.00725	-0.00871	-0.00914	-0.00993
849.605	-0.00774	-0.00784	-0.00765	-0.00846	-0.00723	-0.00859	-0.00893	-0.00976
850.158	-0.00776	-0.00781	-0.00754	-0.00845	-0.00733	-0.00865	-0.00897	-0.00963
850.711	-0.00766	-0.00771	-0.00747	-0.00841	-0.0073	-0.00867	-0.0089	-0.00944
851.263	-0.00772	-0.00776	-0.00753	-0.00838	-0.00737	-0.00866	-0.00897	-0.00945
851.816	-0.00777	-0.00773	-0.00739	-0.00832	-0.00739	-0.00851	-0.00901	-0.00943
852.369	-0.00763	-0.00765	-0.00725	-0.00828	-0.0074	-0.00849	-0.00895	-0.00929
852.921	-0.00743	-0.00751	-0.00705	-0.00806	-0.00727	-0.00836	-0.00872	-0.00911
853.474	-0.00726	-0.00744	-0.00699	-0.00788	-0.00713	-0.00823	-0.00862	-0.00919
854.026	-0.00723	-0.00757	-0.00703	-0.00771	-0.00711	-0.00829	-0.00871	-0.00927
854.579	-0.00705	-0.00736	-0.00689	-0.00746	-0.00693	-0.00822	-0.00844	-0.00913
855.131	-0.00683	-0.00727	-0.00681	-0.00728	-0.00683	-0.00814	-0.00832	-0.00885
855.684	-0.0066	-0.00713	-0.00664	-0.00708	-0.00673	-0.00794	-0.00812	-0.00859
856.236	-0.00664	-0.00724	-0.00668	-0.00702	-0.00664	-0.00798	-0.00809	-0.00853
856.788	-0.00658	-0.00733	-0.00665	-0.007	-0.00669	-0.00791	-0.00819	-0.00854
857.34	-0.00641	-0.0074	-0.00659	-0.00693	-0.00663	-0.00772	-0.00814	-0.00852
857.893	-0.00622	-0.00742	-0.00643	-0.00688	-0.00656	-0.00779	-0.00804	-0.00844
858.445	-0.0062	-0.00752	-0.00648	-0.00687	-0.00647	-0.00772	-0.00807	-0.00838
858.997	-0.00609	-0.00737	-0.00639	-0.00677	-0.0063	-0.00769	-0.00801	-0.00832
859.549	-0.00611	-0.00734	-0.00643	-0.00682	-0.00638	-0.00785	-0.00806	-0.0084
860.101	-0.0063	-0.00741	-0.00641	-0.00678	-0.00635	-0.00796	-0.00805	-0.00831
860.653	-0.00623	-0.00741	-0.00628	-0.00676	-0.00629	-0.00799	-0.00805	-0.00832
861.204	-0.00618	-0.00751	-0.00626	-0.00671	-0.00633	-0.00798	-0.00797	-0.00833
861.756	-0.00617	-0.00746	-0.00638	-0.00676	-0.00635	-0.00804	-0.00789	-0.00833
862.308	-0.00618	-0.00752	-0.00643	-0.00673	-0.00632	-0.008	-0.00786	-0.0085
862.86	-0.00608	-0.00749	-0.00638	-0.00687	-0.00633	-0.00804	-0.00775	-0.00844
863.411	-0.00611	-0.00759	-0.00655	-0.00688	-0.0064	-0.0081	-0.0078	-0.00845
863.963	-0.00622	-0.00766	-0.00651	-0.00685	-0.00622	-0.00824	-0.00776	-0.00852
864.514	-0.00629	-0.00789	-0.00673	-0.00704	-0.00628	-0.00844	-0.00803	-0.00878
865.066	-0.00633	-0.00787	-0.00672	-0.00718	-0.00631	-0.00853	-0.008	-0.00882
865.617	-0.00636	-0.00781	-0.00673	-0.00727	-0.00631	-0.00837	-0.00789	-0.00875
866.169	-0.00644	-0.00779	-0.00682	-0.00732	-0.00638	-0.00828	-0.008	-0.00874
866.72	-0.00648	-0.00779	-0.00686	-0.00747	-0.00627	-0.00814	-0.00806	-0.0088
867.271	-0.00637	-0.00774	-0.00684	-0.0074	-0.00614	-0.00821	-0.00794	-0.00891
867.822	-0.00617	-0.00746	-0.00661	-0.00719	-0.00588	-0.00794	-0.00778	-0.00876
868.374	-0.00601	-0.00732	-0.00642	-0.00694	-0.00571	-0.00791	-0.00761	-0.00868
868.925	-0.00594	-0.00727	-0.00631	-0.00695	-0.00579	-0.00796	-0.00757	-0.00858
869.476	-0.00601	-0.00729	-0.0063	-0.0068	-0.00564	-0.00771	-0.00757	-0.00848
870.027	-0.00588	-0.00721	-0.00618	-0.0067	-0.00558	-0.00774	-0.00746	-0.00841
870.578	-0.00573	-0.00719	-0.00608	-0.00645	-0.00551	-0.00758	-0.00724	-0.00829
871.129	-0.00564	-0.00723	-0.00611	-0.00643	-0.0054	-0.00766	-0.00717	-0.00822
871.68	-0.00549	-0.00701	-0.00589	-0.00629	-0.00533	-0.0074	-0.00706	-0.00817
872.23	-0.00545	-0.00692	-0.00591	-0.00628	-0.00521	-0.00752	-0.00703	-0.00807
872.781	-0.00538	-0.0069	-0.00587	-0.00634	-0.0051	-0.00751	-0.00698	-0.00806
873.332	-0.00523	-0.00675	-0.00562	-0.00611	-0.00488	-0.00736	-0.00694	-0.00796
873.882	-0.00507	-0.00662	-0.00544	-0.00607	-0.0049	-0.00722	-0.00692	-0.00776
874.433	-0.00513	-0.00646	-0.00531	-0.00581	-0.00472	-0.0072	-0.00678	-0.00769
874.984	-0.005	-0.00642	-0.00521	-0.00573	-0.00444	-0.00711	-0.00668	-0.00754
875.534	-0.005	-0.00638	-0.00531	-0.00574	-0.00454	-0.00691	-0.0066	-0.00755
876.085	-0.00509	-0.00618	-0.00529	-0.00562	-0.00457	-0.00669	-0.00645	-0.00746
876.635	-0.00485	-0.00606	-0.00512	-0.00529	-0.00445	-0.00661	-0.00623	-0.00726
877.185	-0.00473	-0.00587	-0.00512	-0.00532	-0.00438	-0.00654	-0.00618	-0.00716
877.736	-0.00482	-0.00585	-0.00515	-0.00533	-0.00443	-0.00673	-0.00608	-0.00738
878.286	-0.00461	-0.00577	-0.00502	-0.00515	-0.00436	-0.00676	-0.00594	-0.00722
878.836	-0.0046	-0.00581	-0.00486	-0.00509	-0.00439	-0.0066	-0.00593	-0.00709
879.386	-0.00465	-0.00596	-0.00501	-0.00518	-0.00455	-0.00671	-0.00596	-0.00725
879.936	-0.00462	-0.00593	-0.00497	-0.00516	-0.00457	-0.00653	-0.00591	-0.00719
880.486	-0.00459	-0.00591	-0.005	-0.00514	-0.00451	-0.00649	-0.00591	-0.00722
881.036	-0.00437	-0.00571	-0.0049	-0.00518	-0.00456	-0.00642	-0.00589	-0.00722
881.586	-0.00433	-0.00562	-0.00487	-0.00509	-0.00446	-0.00636	-0.00592	-0.00731
882.136	-0.00437	-0.00556	-0.00492	-0.00515	-0.00439	-0.00633	-0.00597	-0.00749
882.686	-0.00443	-0.00534	-0.00485	-0.00503	-0.00437	-0.00627	-0.00598	-0.00742
883.235	-0.00412	-0.00523	-0.00476	-0.00485	-0.00415	-0.00619	-0.00572	-0.00726
883.785	-0.00404	-0.00506	-0.00463	-0.00462	-0.004	-0.00588	-0.00559	-0.00721
884.335	-0.00389	-0.00492	-0.00462	-0.00444	-0.00384	-0.00578	-0.00554	-0.00701
884.884	-0.00381	-0.00516	-0.0047	-0.00444	-0.00386	-0.00587	-0.00546	-0.00701
885.434	-0.00388	-0.00518	-0.00473	-0.00444	-0.00376	-0.00585	-0.00555	-0.00707
885.983	-0.00359	-0.00496	-0.00467	-0.00447	-0.0036	-0.00565	-0.00562	-0.00694
886.533	-0.00358	-0.00487	-0.00456	-0.00448	-0.0036	-0.00554	-0.00555	-0.00685
887.082	-0.00349	-0.00476	-0.00443	-0.00434	-0.0036	-0.00558	-0.0055	-0.00678
887.632	-0.00316	-0.00466	-0.00416	-0.00424	-0.00342	-0.00541	-0.00539	-0.00637
888.181	-0.00328	-0.00461	-0.00427	-0.00433	-0.00345	-0.00546	-0.00551	-0.00634
888.73	-0.00333	-0.00464	-0.00423	-0.00421	-0.00337	-0.00544	-0.00546	-0.00614
889.279	-0.00322	-0.00461	-0.00399	-0.00418	-0.0032	-0.00527	-0.00536	-0.00584
889.828	-0.00324	-0.0045	-0.00407	-0.00415	-0.00328	-0.00521	-0.00536	-0.00585
890.377	-0.00329	-0.0044	-0.00408	-0.00409	-0.00326	-0.00535	-0.00527	-0.00593
890.926	-0.00323	-0.00443	-0.00389	-0.00414	-0.00332	-0.00531	-0.00528	-0.00582
891.475	-0.00297	-0.00426	-0.0037	-0.00395	-0.00302	-0.00514	-0.00516	-0.00562
892.024	-0.00271	-0.00405	-0.00355	-0.00369	-0.0027	-0.00488	-0.00504	-0.00549
892.573	-0.00268	-0.00412	-0.00335	-0.00363	-0.00248	-0.00478	-0.00481	-0.00528
893.122	-0.00269	-0.00404	-0.00331	-0.00364	-0.00235	-0.00476	-0.00462	-0.00512
893.671	-0.00262	-0.00409	-0.00311	-0.00366	-0.00236	-0.00473	-0.00456	-0.0049
894.219	-0.00254	-0.00401	-0.00317	-0.00369	-0.0023	-0.00453	-0.00455	-0.00469
894.768	-0.00267	-0.00408	-0.00316	-0.00373	-0.00245	-0.00455	-0.00469	-0.00469
895.317	-0.00256	-0.00415	-0.00318	-0.00373	-0.00257	-0.00456	-0.00472	-0.00468
895.865	-0.00254	-0.00405	-0.0032	-0.00386	-0.00255	-0.00449	-0.00477	-0.00468
896.414	-0.00263	-0.0038	-0.00296	-0.0039	-0.00247	-0.00426	-0.00471	-0.00466
896.962	-0.00251	-0.00366	-0.00283	-0.00373	-0.00234	-0.00412	-0.00442	-0.00445
897.511	-0.00258	-0.00367	-0.00285	-0.00365	-0.00237	-0.00426	-0.00428	-0.00449
898.059	-0.00233	-0.00346	-0.00274	-0.00352	-0.00235	-0.00401	-0.00418	-0.00432
898.607	-0.00209	-0.00321	-0.00251	-0.0033	-0.00206	-0.00393	-0.00388	-0.00408
899.155	-0.00216	-0.00312	-0.00263	-0.00336	-0.00204	-0.004	-0.00388	-0.00415
899.704	-0.00207	-0.00302	-0.00247	-0.0033	-0.00187	-0.00395	-0.00381	-0.00403
900.252	-0.0019	-0.0029	-0.00242	-0.00323	-0.00187	-0.00376	-0.00373	-0.00408
900.8	-0.00191	-0.00291	-0.00235	-0.00325	-0.00191	-0.00373	-0.00385	-0.00429
901.348	-0.00185	-0.00288	-0.00224	-0.00316	-0.00178	-0.00367	-0.00377	-0.0042
901.896	-0.00171	-0.00288	-0.00228	-0.00317	-0.00157	-0.00351	-0.00386	-0.00401
902.444	-0.00152	-0.00246	-0.00224	-0.00287	-0.00138	-0.00339	-0.00372	-0.00387
902.991	-0.00156	-0.00251	-0.00241	-0.0031	-0.00159	-0.00364	-0.00385	-0.00395
903.539	-0.0016	-0.00248	-0.00237	-0.00301	-0.00163	-0.0037	-0.00364	-0.00391
904.087	-0.00166	-0.00243	-0.0024	-0.0029	-0.00165	-0.0038	-0.00361	-0.00398
904.635	-0.00149	-0.00237	-0.00237	-0.00283	-0.00163	-0.00381	-0.00362	-0.00383
905.182	-0.00134	-0.00218	-0.00232	-0.0027	-0.00159	-0.0036	-0.00346	-0.00378
905.73	-0.00121	-0.00218	-0.00221	-0.00252	-0.00154	-0.00367	-0.00333	-0.00383
906.277	-0.00105	-0.00199	-0.00208	-0.00234	-0.00137	-0.00356	-0.00317	-0.00365
906.825	-9.42475E-4	-0.00186	-0.00182	-0.00223	-0.00116	-0.00353	-0.00295	-0.00349
907.372	-7.98469E-4	-0.00166	-0.00161	-0.00199	-0.00108	-0.00335	-0.00268	-0.00321
907.92	-5.8601E-4	-0.00174	-0.00174	-0.00205	-0.00109	-0.00345	-0.0027	-0.00325
908.467	-2.72584E-4	-0.00153	-0.00163	-0.00181	-8.90692E-4	-0.00325	-0.00258	-0.00319
909.014	-8.95336E-5	-0.00144	-0.00148	-0.00168	-8.52762E-4	-0.00302	-0.00259	-0.00311
909.561	3.13491E-5	-0.00138	-0.00133	-0.00147	-7.21722E-4	-0.00306	-0.00241	-0.00306
910.109	-2.99986E-5	-0.00144	-0.00126	-0.00153	-7.02939E-4	-0.00298	-0.0025	-0.00311
910.656	4.43989E-5	-0.0015	-0.0011	-0.00142	-7.79383E-4	-0.00281	-0.00239	-0.0031
911.203	2.04774E-4	-0.00146	-0.00102	-0.00126	-6.17106E-4	-0.00262	-0.00232	-0.00309
911.75	3.46823E-4	-0.00141	-9.78545E-4	-0.00108	-5.79481E-4	-0.00257	-0.00228	-0.0031
912.297	5.38417E-4	-0.00124	-9.16901E-4	-8.59338E-4	-4.82349E-4	-0.00245	-0.00207	-0.00293
912.843	7.93319E-4	-0.00104	-7.51332E-4	-5.10938E-4	-3.45883E-4	-0.00224	-0.00186	-0.00284
913.39	9.77636E-4	-7.78523E-4	-4.44784E-4	-3.32826E-4	-1.47784E-4	-0.00205	-0.00148	-0.00267
913.937	8.94152E-4	-7.94422E-4	-2.40197E-4	-2.54468E-4	-2.25156E-5	-0.00195	-0.00136	-0.00268
914.484	9.45836E-4	-5.71778E-4	1.00564E-4	-1.55246E-5	1.44112E-4	-0.00163	-0.00109	-0.00245
915.03	0.00124	-4.38746E-4	1.97038E-4	7.00069E-5	3.91439E-4	-0.00148	-0.00107	-0.00212
915.577	0.00161	-8.67284E-6	4.69431E-4	4.4725E-4	6.58971E-4	-0.00103	-8.0159E-4	-0.00187
916.124	0.00188	1.48321E-4	6.41603E-4	6.74444E-4	8.78207E-4	-7.68854E-4	-4.08465E-4	-0.00185
916.67	0.00203	2.57985E-4	7.30274E-4	8.49166E-4	0.0011	-6.9237E-4	-4.32697E-4	-0.00184
917.217	0.0022	3.30016E-4	9.24505E-4	9.7067E-4	0.0013	-4.94126E-4	-2.52223E-4	-0.00171
917.763	0.00248	6.70601E-4	0.00103	0.00109	0.00143	-2.10234E-4	-1.29152E-4	-0.00146
918.309	0.00276	8.95358E-4	0.00123	0.00126	0.00164	8.14605E-7	-5.05607E-5	-0.00125
918.856	0.00301	9.81574E-4	0.00147	0.00157	0.00208	2.27816E-4	2.25055E-4	-0.00108
919.402	0.00318	0.00153	0.00179	0.00207	0.00242	6.16574E-4	6.32827E-4	-5.58618E-4
919.948	0.00318	0.00155	0.00203	0.00212	0.00251	7.95413E-4	8.50837E-4	-2.94558E-4
920.494	0.00369	0.00208	0.00245	0.00243	0.00308	0.00121	0.00141	7.49793E-5
921.04	0.00394	0.00231	0.00258	0.00272	0.00335	0.00164	0.0016	3.54319E-4
921.586	0.00449	0.00285	0.00296	0.00319	0.00391	0.00211	0.00207	8.74362E-4
922.132	0.00486	0.00323	0.00326	0.00372	0.00425	0.00247	0.00255	0.00134
922.678	0.00512	0.00353	0.0036	0.00386	0.00446	0.00261	0.0029	0.00172
923.224	0.00558	0.00414	0.00409	0.00426	0.00498	0.003	0.00336	0.00235
923.77	0.00588	0.00451	0.00448	0.0046	0.00542	0.00329	0.00365	0.00277
924.315	0.00632	0.00506	0.00509	0.005	0.00601	0.0037	0.00423	0.0034
924.861	0.00679	0.00547	0.00548	0.00543	0.00627	0.00428	0.00447	0.00387
925.407	0.00747	0.00591	0.00592	0.00597	0.00687	0.00467	0.00515	0.00453
925.952	0.00789	0.00636	0.00634	0.0064	0.00738	0.00516	0.00559	0.00502
926.498	0.00835	0.00693	0.00687	0.00687	0.00775	0.00568	0.00624	0.00542
927.043	0.00859	0.00708	0.00731	0.00717	0.00813	0.00615	0.00653	0.00597
927.589	0.00911	0.00765	0.00798	0.00771	0.00864	0.00662	0.00689	0.00662
928.134	0.00963	0.00829	0.00867	0.00819	0.00925	0.00722	0.00759	0.00741
928.679	0.01024	0.00889	0.00933	0.00884	0.00993	0.00782	0.0082	0.00804
929.225	0.01082	0.00943	0.00995	0.00944	0.01073	0.00856	0.00896	0.00861
929.77	0.01129	0.01001	0.01056	0.01006	0.01122	0.0092	0.00953	0.00914
930.315	0.01171	0.01063	0.01096	0.01059	0.01137	0.00964	0.01003	0.00966
930.86	0.01247	0.01111	0.01163	0.01111	0.01213	0.01023	0.01059	0.01011
931.405	0.01312	0.01168	0.01215	0.01189	0.01257	0.01076	0.01119	0.01068
931.95	0.01338	0.01193	0.01254	0.01231	0.0131	0.01096	0.01152	0.01109
932.495	0.01384	0.01252	0.01313	0.0129	0.01356	0.0114	0.01201	0.01152
933.04	0.01414	0.0128	0.01351	0.01327	0.01391	0.01177	0.0124	0.01197
933.585	0.01495	0.01374	0.01425	0.01406	0.01478	0.01236	0.01295	0.01276
934.129	0.0154	0.01419	0.01466	0.01456	0.0152	0.01306	0.01334	0.0132
934.674	0.016	0.0145	0.01519	0.01507	0.01593	0.01334	0.01398	0.01355
935.219	0.01661	0.01518	0.0156	0.01575	0.01649	0.01427	0.01469	0.01444
935.763	0.0173	0.01574	0.01604	0.01631	0.01701	0.01492	0.01519	0.01489
936.308	0.01764	0.01629	0.01645	0.01688	0.01764	0.01518	0.01584	0.01544
936.852	0.01824	0.01685	0.01686	0.0174	0.01794	0.01598	0.01638	0.01604
937.397	0.01887	0.01754	0.01735	0.01813	0.01858	0.01675	0.01705	0.01645
937.941	0.01934	0.01799	0.0179	0.01881	0.01917	0.01722	0.01755	0.01694
938.486	0.01995	0.01907	0.01844	0.01928	0.01974	0.01774	0.01821	0.01749
939.03	0.02033	0.01956	0.01899	0.01987	0.0203	0.01839	0.01905	0.01816
939.574	0.0212	0.02016	0.01949	0.02044	0.02076	0.01902	0.01956	0.01857
940.118	0.02175	0.0209	0.02014	0.02089	0.02125	0.01967	0.02015	0.01913
940.662	0.02231	0.02166	0.02077	0.02174	0.02152	0.01996	0.02083	0.01975
941.206	0.02337	0.02258	0.02151	0.02231	0.02259	0.02074	0.02167	0.02084
941.75	0.02435	0.02336	0.02261	0.02326	0.02348	0.02163	0.02246	0.02175
942.294	0.02513	0.02435	0.02375	0.0241	0.0246	0.02252	0.02326	0.02276
942.838	0.02616	0.02543	0.025	0.02509	0.02571	0.0236	0.02387	0.02384
943.382	0.02687	0.02639	0.02597	0.02574	0.02654	0.02479	0.02507	0.02488
943.926	0.02831	0.02765	0.02741	0.02679	0.02775	0.02596	0.02647	0.02646
944.469	0.02942	0.02875	0.02862	0.02844	0.02893	0.0273	0.02767	0.02742
945.013	0.03082	0.03004	0.03	0.02925	0.03042	0.02884	0.02915	0.02861
945.557	0.03274	0.03199	0.03193	0.03128	0.03234	0.03066	0.03083	0.03071
946.1	0.03531	0.034	0.03423	0.03339	0.03414	0.03309	0.03298	0.03278
946.644	0.03708	0.03561	0.03579	0.03513	0.03601	0.03461	0.03464	0.03425
947.187	0.03861	0.03705	0.03743	0.03683	0.03752	0.03616	0.03632	0.03594
947.731	0.04036	0.03879	0.03931	0.03852	0.03947	0.03815	0.03786	0.03736
948.274	0.04205	0.04046	0.04076	0.04028	0.04139	0.03956	0.0392	0.03899
948.817	0.04396	0.04234	0.0426	0.04205	0.0431	0.04158	0.04107	0.04107
949.36	0.04575	0.04412	0.04438	0.04348	0.04463	0.04316	0.0429	0.043
949.904	0.04812	0.04606	0.04657	0.04577	0.04671	0.04517	0.04519	0.04503
950.447	0.04959	0.0477	0.04855	0.04778	0.0486	0.04718	0.04702	0.04706
950.99	0.0513	0.05002	0.05061	0.05014	0.051	0.04896	0.04918	0.04931
951.533	0.05336	0.05178	0.05284	0.05233	0.05308	0.05099	0.05141	0.05158
952.076	0.05527	0.05345	0.05453	0.05431	0.05486	0.05289	0.05318	0.05333
952.619	0.057	0.0553	0.05604	0.05624	0.05697	0.05479	0.05515	0.05473
953.161	0.05899	0.05719	0.05822	0.05826	0.05882	0.05683	0.05711	0.05655
953.704	0.06078	0.05901	0.06004	0.06028	0.06041	0.05854	0.05899	0.05823
954.247	0.06314	0.06082	0.06197	0.06212	0.06216	0.06036	0.06098	0.05996
954.79	0.06475	0.06258	0.06362	0.06423	0.06379	0.06205	0.06244	0.06186
955.332	0.06637	0.06426	0.06554	0.06589	0.06541	0.06377	0.06419	0.06353
955.875	0.06846	0.06619	0.06743	0.06766	0.06727	0.06567	0.06589	0.06559
956.417	0.06974	0.06733	0.06872	0.06897	0.06864	0.06673	0.06715	0.06684
956.96	0.07118	0.06883	0.07014	0.07061	0.07021	0.06842	0.06868	0.06831
957.502	0.07203	0.07029	0.07143	0.07195	0.07128	0.06958	0.06993	0.06985
958.044	0.07338	0.07174	0.07317	0.07312	0.07265	0.07079	0.07116	0.071
958.587	0.07439	0.07259	0.07433	0.07405	0.07355	0.07177	0.07209	0.07187
959.129	0.07558	0.07369	0.07536	0.07504	0.07476	0.07292	0.07332	0.07316
959.671	0.07674	0.07481	0.07702	0.07642	0.0761	0.07437	0.07482	0.07435
960.213	0.0777	0.07566	0.07803	0.07746	0.07717	0.0751	0.07569	0.07521
960.755	0.07866	0.07656	0.07889	0.07847	0.07831	0.07618	0.07664	0.07618
961.297	0.07968	0.07782	0.07989	0.07947	0.07944	0.07731	0.07765	0.07716
961.839	0.08069	0.07883	0.08047	0.08035	0.08048	0.07819	0.07842	0.07802
962.381	0.08131	0.07922	0.08111	0.08107	0.08088	0.07899	0.07916	0.07878
962.923	0.08189	0.07992	0.08146	0.08158	0.08157	0.07945	0.07955	0.07926
963.465	0.08241	0.08043	0.08224	0.08232	0.08237	0.08007	0.08011	0.07986
964.006	0.08312	0.08105	0.08299	0.08291	0.08303	0.08049	0.08077	0.08066
964.548	0.08385	0.0818	0.08367	0.08363	0.08379	0.08109	0.08156	0.08121
965.089	0.08437	0.0821	0.08401	0.08395	0.08428	0.08158	0.08186	0.08181
965.631	0.08433	0.08266	0.08419	0.08422	0.08471	0.08193	0.08229	0.08226
966.173	0.0848	0.08307	0.08479	0.08475	0.0852	0.08252	0.08302	0.08276
966.714	0.08533	0.08339	0.08494	0.08493	0.08573	0.08274	0.08335	0.08304
967.255	0.08547	0.08381	0.0851	0.08525	0.08611	0.08286	0.08364	0.0832
967.797	0.08578	0.08396	0.08552	0.08571	0.08642	0.08334	0.08397	0.08339
968.338	0.08591	0.08415	0.08581	0.0858	0.08674	0.08368	0.0842	0.08363
968.879	0.08622	0.08414	0.08606	0.08583	0.08705	0.08387	0.08462	0.08343
969.42	0.08641	0.08421	0.08583	0.08586	0.08712	0.08393	0.08481	0.08355
969.961	0.08699	0.0847	0.0863	0.08635	0.08777	0.0845	0.08543	0.08418
970.502	0.08729	0.08532	0.08674	0.08693	0.08816	0.08482	0.08609	0.08456
971.043	0.08752	0.08565	0.08677	0.08714	0.08823	0.08507	0.08618	0.08466
971.584	0.08783	0.08605	0.08707	0.08742	0.08854	0.0856	0.08654	0.08496
972.125	0.08785	0.08618	0.08716	0.08738	0.08852	0.08581	0.08665	0.08512
972.666	0.08757	0.08596	0.08679	0.08717	0.08837	0.08575	0.08639	0.08506
973.207	0.08752	0.08587	0.08668	0.08691	0.08792	0.08554	0.08626	0.08491
973.747	0.08789	0.08616	0.08697	0.08726	0.08818	0.0859	0.08643	0.08493
974.288	0.08796	0.0864	0.08697	0.08723	0.08807	0.08607	0.08662	0.08492
974.829	0.08803	0.08625	0.08682	0.08697	0.08788	0.08584	0.08665	0.08486
975.369	0.088	0.08635	0.08715	0.08724	0.08799	0.08602	0.08684	0.08518
975.91	0.08789	0.08602	0.08701	0.08694	0.08775	0.08588	0.08661	0.085
976.45	0.08761	0.08597	0.08687	0.08692	0.08749	0.0858	0.08662	0.08501
976.99	0.08804	0.08594	0.08708	0.08698	0.0876	0.08583	0.08667	0.08518
977.531	0.0879	0.086	0.08667	0.08691	0.08763	0.08544	0.08627	0.08501
978.071	0.08774	0.08602	0.08653	0.08687	0.08739	0.08561	0.08624	0.08485
978.611	0.08746	0.08567	0.08597	0.08647	0.08722	0.08548	0.08582	0.08465
979.151	0.08748	0.08578	0.08625	0.08641	0.08718	0.08544	0.08599	0.08472
979.691	0.08735	0.08558	0.08589	0.08616	0.08684	0.08485	0.08574	0.0845
980.231	0.08716	0.08557	0.08555	0.08606	0.08672	0.08481	0.08531	0.08453
980.771	0.08715	0.08539	0.08545	0.08604	0.08684	0.08472	0.08522	0.08451
981.311	0.08674	0.08514	0.08509	0.08581	0.08643	0.08435	0.08464	0.08415
981.851	0.0865	0.08468	0.08472	0.08529	0.08628	0.0841	0.08419	0.08375
982.391	0.08613	0.0844	0.0844	0.08486	0.08607	0.0835	0.08384	0.08326
982.931	0.08598	0.08416	0.08415	0.08477	0.08574	0.08311	0.08349	0.08301
983.47	0.08583	0.08395	0.08397	0.08478	0.08553	0.08272	0.08322	0.08265
984.01	0.08581	0.08365	0.08399	0.08473	0.08526	0.08243	0.08305	0.08238
984.55	0.08535	0.08329	0.0836	0.08449	0.08511	0.08197	0.08274	0.08219
985.089	0.08525	0.0831	0.08336	0.08403	0.08496	0.08136	0.08232	0.08184
985.628	0.08499	0.08268	0.08335	0.0838	0.08497	0.08131	0.0821	0.08175
986.168	0.08484	0.08273	0.08324	0.08348	0.08483	0.08148	0.08187	0.08159
986.707	0.08423	0.08185	0.08216	0.08249	0.08408	0.08066	0.08108	0.08075
987.247	0.08362	0.08142	0.08174	0.08175	0.08357	0.08012	0.08065	0.08023
987.786	0.08319	0.08103	0.08108	0.0813	0.08335	0.07975	0.08026	0.07977
988.325	0.08262	0.08057	0.08086	0.08077	0.08302	0.07944	0.07976	0.07912
988.864	0.08228	0.08017	0.08051	0.08015	0.08255	0.07912	0.07908	0.0787
989.403	0.08162	0.07959	0.08041	0.07978	0.08218	0.07866	0.07856	0.0782
989.942	0.0812	0.07925	0.08016	0.07941	0.08134	0.07821	0.07821	0.07774
990.481	0.0807	0.07878	0.07953	0.07896	0.08073	0.07781	0.07767	0.07733
991.02	0.08038	0.07856	0.07925	0.0787	0.0803	0.07757	0.07723	0.07683
991.559	0.07999	0.07793	0.07904	0.07831	0.08001	0.07708	0.07684	0.07629
992.097	0.07948	0.07747	0.07874	0.07781	0.07944	0.07667	0.0765	0.07573
992.636	0.07913	0.07716	0.07829	0.07747	0.07884	0.07626	0.07623	0.07513
993.175	0.07873	0.07656	0.07785	0.07695	0.078	0.07571	0.07535	0.07469
993.713	0.07816	0.07582	0.07742	0.07643	0.07747	0.07539	0.07503	0.0744
994.252	0.07755	0.07523	0.07701	0.07595	0.07722	0.07478	0.07466	0.0739
994.79	0.07714	0.07472	0.07644	0.07554	0.07675	0.0744	0.07414	0.07344
995.329	0.07356	0.07339	0.07194	0.0746	0.06935	0.07265	0.071	0.07207
995.867	0.0778	0.07498	0.07842	0.07579	0.0737	0.07401	0.07518	0.07491
996.406	0.07664	0.07679	0.07468	0.07625	0.07336	0.07307	0.07166	0.07146
996.944	0.07663	0.07098	0.07513	0.07205	0.07947	0.07195	0.07304	0.06844
997.482	0.07582	0.06931	0.07391	0.07493	0.07379	0.07079	0.07439	0.06903
998.02	0.07809	0.07815	0.07653	0.07725	0.07253	0.07444	0.07469	0.06949
998.558	0.07304	0.06819	0.07133	0.06942	0.0688	0.06944	0.06432	0.06864
999.096	0.07213	0.06893	0.07666	0.0737	0.07505	0.07296	0.07466	0.07053
999.634	0.07216	0.06936	0.07161	0.07303	0.07414	0.06733	0.07039	0.07048
1000.172	0.07704	0.07306	0.07455	0.07655	0.07456	0.07405	0.07162	0.06994
