# Methylene blue with anatase (0.28%) brookite (0.72%)
# Impregnated with Au via plasma
# Wavelength(nm) Absorbance(a.u.)
#	A.M. Brooquita.Anatasa.60h/Au 195 min	A.M. Brooquita.Anatasa.60h/Au 120 min	A.M. Brooquita.Anatasa.60h/Au 90 min	A.M. Brooquita.Anatasa.60h/Au 60 min	A.M. Brooquita.Anatasa.60h/Au 30 min	A.M. Brooquita.Anatasa.60h/Au 15 min	A.M. Brooquita.Anatasa.60h/Au 5 min	A.M. Brooquita.Anatasa.60h/Au 0 min
199.408	-0.01314	-0.00538	-0.01761	0.02057	0.05803	0.09489	0.15301	0.29938
200.004	3.82073E-4	0.00283	-0.0035	0.02201	0.06133	0.12435	0.15544	0.29943
200.6	-0.00683	-0.01024	-0.00377	0.01952	0.07728	0.12476	0.16691	0.31001
201.196	0.01041	-0.00705	-0.01399	-7.55484E-4	0.06974	0.11697	0.17266	0.30674
201.792	-0.01326	-0.02416	-0.02028	0.00614	0.03444	0.09635	0.1294	0.28668
202.388	-0.00537	-0.00606	-0.00461	0.0195	0.04899	0.11454	0.1604	0.28148
202.984	-0.00933	-0.00226	-0.01374	0.01766	0.06807	0.11962	0.16051	0.2901
203.58	-0.01185	-0.00589	-0.01303	0.0252	0.05144	0.1204	0.16041	0.29755
204.176	-0.00345	-0.0033	-0.01275	0.01663	0.06703	0.09513	0.15036	0.29676
204.772	-0.00149	0.007	0.0102	0.01474	0.07048	0.1234	0.15084	0.30963
205.368	-0.0047	-0.00732	-0.00912	0.01643	0.05838	0.11149	0.1534	0.30029
205.964	-0.004	-0.00776	-0.00839	0.01735	0.059	0.11225	0.15395	0.30033
206.56	-0.00401	-0.00782	-0.00896	0.01711	0.05897	0.1107	0.15423	0.30032
207.155	-0.00348	-0.00734	-0.00837	0.01694	0.05733	0.11035	0.1538	0.30101
207.751	-0.00486	-0.00772	-0.00875	0.0167	0.05598	0.10988	0.15319	0.3011
208.347	-0.00393	-0.00723	-0.00695	0.01651	0.05751	0.11071	0.15377	0.30164
208.943	-0.00436	-0.00781	-0.00755	0.01543	0.0575	0.1111	0.15331	0.30233
209.538	-0.00459	-0.00806	-0.00729	0.01508	0.05756	0.10985	0.1525	0.30276
210.134	-0.00361	-0.00679	-0.00602	0.01492	0.05876	0.11043	0.15354	0.3039
210.73	-0.00318	-0.00731	-0.00544	0.01561	0.05845	0.11089	0.15415	0.30487
211.325	-0.00224	-0.00705	-0.00608	0.01673	0.05819	0.11167	0.15454	0.30594
211.921	-0.00282	-0.00778	-0.00594	0.01688	0.05849	0.11165	0.15443	0.30599
212.516	-0.00256	-0.00733	-0.00505	0.01702	0.05874	0.11278	0.15472	0.30758
213.112	-0.00154	-0.00665	-0.00524	0.01598	0.05915	0.11386	0.15543	0.3077
213.707	-0.0024	-0.00636	-0.00515	0.01496	0.05841	0.11452	0.15454	0.30758
214.303	-0.0016	-0.00613	-0.00557	0.01482	0.05798	0.11635	0.15481	0.30781
214.898	-6.33857E-4	-0.00728	-0.00516	0.01443	0.05842	0.11713	0.15499	0.30886
215.494	1.37331E-4	-0.00672	-0.00514	0.01443	0.05827	0.11672	0.156	0.30985
216.089	3.26596E-4	-0.00685	-0.00377	0.01535	0.05932	0.11575	0.15664	0.31037
216.684	3.80874E-4	-0.00675	-0.00413	0.01533	0.05982	0.11496	0.156	0.31059
217.28	0.00135	-0.00667	-0.00345	0.01533	0.05981	0.11398	0.15556	0.31066
217.875	6.63783E-4	-0.00723	-0.00401	0.01432	0.05991	0.11329	0.155	0.30958
218.47	7.90592E-4	-0.00673	-0.00384	0.01348	0.06004	0.1132	0.15477	0.30917
219.066	-3.69982E-4	-0.00754	-0.00445	0.01246	0.05964	0.11362	0.15427	0.3088
219.661	-3.00699E-4	-0.00791	-0.00491	0.0134	0.06053	0.11353	0.15366	0.30681
220.256	1.46135E-4	-0.00757	-0.00417	0.01501	0.0618	0.11431	0.15343	0.30651
220.851	-2.64444E-4	-0.00791	-0.0055	0.01553	0.06145	0.11298	0.15412	0.30542
221.446	7.59699E-4	-0.00696	-0.00451	0.0165	0.06209	0.11222	0.15454	0.30559
222.042	0.00133	-0.00716	-0.00468	0.01701	0.06166	0.11349	0.15507	0.30604
222.637	0.00125	-0.00778	-0.00577	0.01595	0.06099	0.11271	0.15387	0.30483
223.232	5.94506E-4	-0.00775	-0.00638	0.0152	0.06103	0.11263	0.15335	0.30405
223.827	-5.5702E-5	-0.0076	-0.00734	0.01382	0.06136	0.11082	0.15365	0.30322
224.422	-3.93407E-4	-0.00737	-0.00757	0.01333	0.06113	0.11063	0.15378	0.3027
225.017	3.61498E-4	-0.00719	-0.00768	0.0139	0.06187	0.11048	0.15524	0.30363
225.612	1.17261E-4	-0.00771	-0.00869	0.01447	0.06234	0.10948	0.15495	0.30412
226.207	5.74993E-5	-0.00868	-0.00837	0.01518	0.06187	0.1087	0.15615	0.30309
226.802	3.60461E-4	-0.0082	-0.00812	0.01506	0.06269	0.10793	0.15566	0.30314
227.397	-2.26963E-4	-0.0079	-0.00857	0.0152	0.06207	0.1076	0.15468	0.30218
227.991	-9.69621E-4	-0.009	-0.00882	0.01446	0.06205	0.10793	0.15383	0.30165
228.586	-0.00134	-0.00994	-0.00928	0.01348	0.06085	0.10883	0.15365	0.29982
229.181	-0.00246	-0.00989	-0.00982	0.01274	0.06099	0.10869	0.15388	0.29877
229.776	-0.0023	-0.01011	-0.01021	0.01221	0.0598	0.10897	0.15409	0.29883
230.371	-0.00192	-0.00988	-0.00981	0.01312	0.05948	0.10844	0.15362	0.29851
230.965	-0.0025	-0.00985	-0.00934	0.01347	0.05888	0.1087	0.15219	0.2984
231.56	-0.00172	-0.00958	-0.00911	0.01386	0.05861	0.1087	0.15232	0.29846
232.155	-0.0028	-0.00982	-0.0098	0.013	0.05844	0.10843	0.1526	0.29916
232.749	-0.00248	-0.00987	-0.01046	0.012	0.05742	0.10812	0.15313	0.29873
233.344	-0.00299	-0.00992	-0.01018	0.01197	0.05706	0.1085	0.15255	0.30027
233.939	-0.0025	-0.00993	-0.0104	0.01178	0.05662	0.10883	0.15307	0.30165
234.533	-0.00267	-0.01004	-0.01024	0.01143	0.05672	0.10842	0.15204	0.30314
235.128	-0.00315	-0.01097	-0.0098	0.01113	0.05584	0.1089	0.1519	0.30379
235.722	-0.00322	-0.01094	-0.00929	0.01159	0.05616	0.10956	0.15156	0.3043
236.317	-0.0041	-0.01264	-0.00928	0.01031	0.05418	0.10857	0.15025	0.30452
236.911	-0.00362	-0.01275	-0.0093	0.01081	0.05481	0.10862	0.1499	0.30606
237.506	-0.00475	-0.01362	-0.00932	0.01059	0.05326	0.10846	0.15006	0.3066
238.1	-0.00372	-0.01317	-0.00817	0.01165	0.05394	0.10945	0.14993	0.30635
238.694	-0.00398	-0.01287	-0.00778	0.01174	0.05462	0.10994	0.14898	0.3071
239.289	-0.00473	-0.01298	-0.00846	0.01152	0.05318	0.1094	0.1488	0.30713
239.883	-0.00456	-0.01273	-0.00755	0.012	0.05363	0.10967	0.15032	0.30961
240.477	-0.00489	-0.01205	-0.00851	0.01199	0.05335	0.10771	0.14999	0.31065
241.072	-0.00498	-0.01212	-0.00886	0.01234	0.05333	0.10643	0.1491	0.31301
241.666	-0.00566	-0.01321	-0.00949	0.01167	0.05267	0.10632	0.15023	0.31553
242.26	-0.00662	-0.01304	-0.00896	0.01169	0.05326	0.1065	0.14987	0.31716
242.854	-0.00643	-0.01342	-0.00869	0.01186	0.05408	0.10692	0.1509	0.31888
243.449	-0.00611	-0.01289	-0.0086	0.01195	0.05525	0.10652	0.15164	0.32166
244.043	-0.00566	-0.01331	-0.00885	0.01162	0.05646	0.1061	0.15166	0.32408
244.637	-0.00459	-0.01232	-0.00819	0.0124	0.05724	0.10671	0.1512	0.32667
245.231	-0.00531	-0.01263	-0.00847	0.012	0.05671	0.10514	0.15019	0.32705
245.825	-0.00526	-0.01222	-0.00861	0.01242	0.05694	0.1051	0.15008	0.32814
246.419	-0.00508	-0.01302	-0.0081	0.01215	0.0571	0.10561	0.15012	0.32891
247.013	-0.00483	-0.01279	-0.00819	0.01263	0.05807	0.10583	0.1505	0.32928
247.607	-0.00427	-0.01254	-0.00779	0.01333	0.05884	0.105	0.15068	0.33196
248.201	-0.00413	-0.01325	-0.00822	0.01283	0.05858	0.10382	0.14993	0.33263
248.795	-0.00452	-0.01296	-0.00812	0.01424	0.05939	0.10461	0.14996	0.33377
249.389	-0.00431	-0.0128	-0.00846	0.01487	0.05946	0.10464	0.14933	0.33353
249.983	-0.00448	-0.01163	-0.00763	0.0147	0.06013	0.10432	0.14814	0.33349
250.576	-0.00527	-0.01201	-0.00845	0.0141	0.05934	0.10319	0.14736	0.33537
251.17	-0.00443	-0.01113	-0.00788	0.01447	0.05973	0.10246	0.14734	0.33791
251.764	-0.00427	-0.01129	-0.00806	0.01497	0.06106	0.10211	0.14727	0.33914
252.358	-0.00399	-0.01071	-0.00793	0.01487	0.06166	0.10258	0.1464	0.34055
252.952	-0.00453	-0.01095	-0.008	0.01441	0.06239	0.1028	0.14581	0.34133
253.545	-0.0039	-0.01085	-0.00793	0.01395	0.06249	0.10367	0.14576	0.34238
254.139	-0.00356	-0.01035	-0.0077	0.01415	0.06288	0.10342	0.14459	0.34304
254.733	-0.00286	-0.0097	-0.00751	0.01454	0.06404	0.10398	0.14469	0.34454
255.326	-0.00258	-0.00974	-0.00766	0.01414	0.06405	0.10419	0.14429	0.34569
255.92	-0.00283	-0.01008	-0.00761	0.01399	0.06403	0.10414	0.14411	0.34679
256.513	-0.00206	-0.00949	-0.00665	0.01487	0.06493	0.10518	0.14446	0.34761
257.107	-0.00189	-0.00953	-0.00578	0.01542	0.06517	0.10525	0.14456	0.34932
257.7	-8.75318E-4	-0.00877	-0.00496	0.01624	0.0663	0.10749	0.14599	0.35145
258.294	-5.91017E-4	-0.00859	-0.00521	0.01664	0.06745	0.10836	0.14549	0.35393
258.887	-0.0013	-0.00799	-0.00531	0.01661	0.06763	0.10807	0.14541	0.35499
259.481	-0.00207	-0.00839	-0.00554	0.01621	0.06749	0.10758	0.14527	0.35486
260.074	-0.00271	-0.00832	-0.00544	0.01601	0.06786	0.10814	0.14541	0.357
260.668	-0.0024	-0.00783	-0.00573	0.01658	0.06803	0.10908	0.14574	0.35845
261.261	-0.00187	-0.00787	-0.00565	0.01599	0.06788	0.10908	0.1464	0.36083
261.854	-0.00243	-0.00768	-0.00582	0.01549	0.06841	0.10976	0.14712	0.3631
262.448	-0.00185	-0.00809	-0.00587	0.01608	0.06937	0.11071	0.14802	0.36503
263.041	-0.00199	-0.00838	-0.00619	0.01607	0.06971	0.11112	0.14933	0.36572
263.634	-0.00276	-0.00929	-0.0067	0.01618	0.06971	0.11232	0.15035	0.36701
264.227	-0.00305	-0.00875	-0.00636	0.01664	0.07072	0.11411	0.15103	0.36914
264.82	-0.00306	-0.00922	-0.00654	0.01707	0.07126	0.11512	0.15223	0.3709
265.414	-0.00285	-0.00955	-0.00637	0.01788	0.07126	0.11671	0.15385	0.37275
266.007	-0.00343	-0.00868	-0.00619	0.0183	0.07222	0.11765	0.1555	0.376
266.6	-0.00362	-0.00916	-0.00662	0.01847	0.07264	0.11907	0.15755	0.3785
267.193	-0.0044	-0.00915	-0.00684	0.01866	0.07332	0.12029	0.15989	0.38182
267.786	-0.00484	-0.00902	-0.00662	0.01895	0.0735	0.12161	0.16248	0.385
268.379	-0.00523	-0.00901	-0.00688	0.01941	0.07438	0.12339	0.16434	0.38837
268.972	-0.00619	-0.00971	-0.00698	0.01903	0.07472	0.12507	0.16667	0.39177
269.565	-0.00685	-0.00962	-0.00732	0.01871	0.07557	0.12647	0.16909	0.39366
270.158	-0.00732	-0.01033	-0.00767	0.01896	0.07652	0.12765	0.17115	0.39697
270.751	-0.00737	-0.01066	-0.00729	0.01875	0.07705	0.12966	0.17386	0.39818
271.344	-0.00723	-0.01084	-0.00731	0.01921	0.07851	0.13115	0.17602	0.4017
271.936	-0.00694	-0.01146	-0.0076	0.01949	0.07946	0.13316	0.17881	0.40547
272.529	-0.00794	-0.01187	-0.00875	0.01988	0.08022	0.13497	0.1819	0.40857
273.122	-0.00815	-0.01183	-0.00825	0.02017	0.08192	0.13786	0.18553	0.41312
273.715	-0.00825	-0.01206	-0.00856	0.02003	0.08309	0.13949	0.18798	0.41625
274.307	-0.00763	-0.01159	-0.00813	0.0207	0.08423	0.14192	0.19142	0.42067
274.9	-0.00742	-0.01128	-0.00784	0.02108	0.0856	0.14436	0.19502	0.42575
275.493	-0.00749	-0.01101	-0.0068	0.0216	0.08731	0.14714	0.19854	0.43002
276.086	-0.00726	-0.01079	-0.00646	0.02148	0.08923	0.14964	0.20262	0.43461
276.678	-0.00716	-0.01114	-0.00658	0.02183	0.08934	0.15155	0.20657	0.43877
277.271	-0.00697	-0.01084	-0.00606	0.02243	0.09111	0.15453	0.2106	0.44302
277.863	-0.0068	-0.01076	-0.00601	0.02303	0.09329	0.15742	0.21478	0.44869
278.456	-0.00659	-0.01068	-0.0059	0.02328	0.09494	0.16049	0.21981	0.45329
279.048	-0.00677	-0.01085	-0.0061	0.02369	0.09692	0.16318	0.22374	0.45794
279.641	-0.00602	-0.01089	-0.00553	0.02468	0.09918	0.16704	0.22861	0.46407
280.233	-0.00617	-0.01169	-0.00578	0.02502	0.1011	0.17008	0.23244	0.46939
280.826	-0.00662	-0.01194	-0.00576	0.02508	0.10181	0.17297	0.2364	0.47412
281.418	-0.00696	-0.01236	-0.00631	0.02533	0.10372	0.17571	0.24114	0.47951
282.01	-0.00632	-0.01242	-0.00615	0.02591	0.10573	0.17952	0.24646	0.48649
282.603	-0.00631	-0.01194	-0.00591	0.02624	0.10755	0.18303	0.25192	0.4936
283.195	-0.0063	-0.01167	-0.00592	0.02676	0.10991	0.18612	0.25738	0.50034
283.787	-0.00635	-0.01179	-0.006	0.02714	0.11129	0.18976	0.26253	0.50632
284.38	-0.0056	-0.01094	-0.00503	0.02853	0.11353	0.19366	0.26812	0.51356
284.972	-0.00488	-0.0106	-0.00479	0.02856	0.11501	0.1961	0.27245	0.51919
285.564	-0.00455	-0.01029	-0.0047	0.0284	0.11587	0.19832	0.27666	0.52313
286.156	-0.00436	-0.01001	-0.00442	0.02899	0.11717	0.20137	0.28136	0.52797
286.748	-0.00505	-0.0108	-0.00431	0.02893	0.11782	0.20339	0.28505	0.53264
287.34	-0.00526	-0.01081	-0.00451	0.02889	0.11822	0.20513	0.28867	0.53726
287.932	-0.00549	-0.01095	-0.00477	0.02874	0.11903	0.20647	0.29179	0.5412
288.524	-0.00552	-0.01117	-0.00474	0.02885	0.11902	0.20818	0.29457	0.54492
289.116	-0.00548	-0.01136	-0.00501	0.02884	0.11948	0.20962	0.29712	0.5485
289.708	-0.00565	-0.01161	-0.0052	0.02826	0.11903	0.20997	0.299	0.55226
290.3	-0.00598	-0.01173	-0.00556	0.02783	0.1184	0.21005	0.30032	0.55384
290.892	-0.00559	-0.01188	-0.00553	0.02789	0.11802	0.20967	0.30065	0.55594
291.484	-0.00523	-0.01196	-0.00546	0.02747	0.11685	0.20933	0.30029	0.55641
292.076	-0.00531	-0.0116	-0.00539	0.02669	0.11556	0.2081	0.29939	0.55629
292.668	-0.00512	-0.01144	-0.00559	0.02618	0.11451	0.20654	0.29776	0.55572
293.26	-0.00468	-0.01117	-0.00562	0.0256	0.11367	0.20491	0.2961	0.5545
293.852	-0.00468	-0.01096	-0.00557	0.02525	0.1121	0.20239	0.29304	0.55346
294.443	-0.00441	-0.01094	-0.00547	0.02464	0.11044	0.19984	0.28992	0.55038
295.035	-0.00444	-0.01111	-0.00565	0.02444	0.10862	0.19692	0.28594	0.54755
295.627	-0.00448	-0.01108	-0.00563	0.02408	0.1064	0.19369	0.28183	0.54378
296.218	-0.00448	-0.01092	-0.0058	0.02333	0.10403	0.19015	0.27727	0.5397
296.81	-0.00488	-0.01083	-0.00613	0.02239	0.10183	0.18656	0.27249	0.53447
297.402	-0.0052	-0.01109	-0.00621	0.02165	0.09943	0.18243	0.26685	0.52928
297.993	-0.00539	-0.01142	-0.00621	0.02122	0.09732	0.17847	0.2609	0.52427
298.585	-0.00526	-0.01141	-0.00616	0.02048	0.09515	0.17438	0.25461	0.51869
299.176	-0.0047	-0.01099	-0.00621	0.0202	0.09333	0.1704	0.24886	0.5123
299.768	-0.00464	-0.01104	-0.00616	0.01972	0.09111	0.16625	0.24245	0.50592
300.359	-0.00463	-0.01113	-0.00614	0.01951	0.089	0.16213	0.23545	0.49904
300.951	-0.00477	-0.01108	-0.00648	0.01883	0.08692	0.15749	0.22862	0.49183
301.542	-0.00499	-0.01121	-0.00663	0.0181	0.08449	0.15282	0.2213	0.48449
302.133	-0.00467	-0.01094	-0.00663	0.01769	0.08216	0.14855	0.21489	0.47704
302.725	-0.00461	-0.01111	-0.00645	0.01738	0.07988	0.14427	0.20822	0.47012
303.316	-0.00463	-0.01091	-0.0063	0.01681	0.07766	0.1404	0.20201	0.46317
303.907	-0.00466	-0.01092	-0.00625	0.01669	0.07594	0.13608	0.19578	0.45671
304.499	-0.00455	-0.0107	-0.00617	0.01645	0.07376	0.13213	0.18971	0.45002
305.09	-0.00439	-0.01048	-0.00588	0.01613	0.07184	0.12853	0.18414	0.44384
305.681	-0.00396	-0.01055	-0.00549	0.01609	0.07004	0.12525	0.17872	0.43736
306.272	-0.00401	-0.01047	-0.00552	0.01564	0.06768	0.12173	0.17313	0.43079
306.863	-0.00423	-0.01043	-0.00561	0.01537	0.06612	0.11807	0.16792	0.42504
307.455	-0.00431	-0.01057	-0.00586	0.01489	0.06426	0.11476	0.16261	0.41918
308.046	-0.00456	-0.01068	-0.00577	0.01444	0.06259	0.11173	0.15754	0.41386
308.637	-0.00446	-0.01078	-0.00581	0.01417	0.0611	0.10887	0.15307	0.40905
309.228	-0.00431	-0.01092	-0.00581	0.01401	0.05954	0.1061	0.14857	0.40438
309.819	-0.00396	-0.01075	-0.00563	0.01386	0.05852	0.10377	0.14504	0.40004
310.41	-0.00402	-0.01082	-0.00581	0.01368	0.05704	0.10151	0.14126	0.39537
311.001	-0.00404	-0.01076	-0.00583	0.01347	0.05596	0.09926	0.13805	0.39156
311.591	-0.00414	-0.01085	-0.00603	0.01302	0.05501	0.0973	0.13483	0.38821
312.182	-0.00419	-0.01065	-0.00646	0.01274	0.054	0.0957	0.13191	0.38501
312.773	-0.00405	-0.01074	-0.00659	0.01236	0.05295	0.09384	0.12957	0.38197
313.364	-0.00411	-0.01069	-0.00655	0.01205	0.05188	0.09219	0.12723	0.37921
313.955	-0.00402	-0.0106	-0.00637	0.01191	0.05132	0.09063	0.12549	0.37683
314.546	-0.00414	-0.01059	-0.00651	0.01164	0.05045	0.08922	0.12312	0.37435
315.136	-0.0041	-0.0105	-0.0066	0.01124	0.04978	0.08773	0.12096	0.37183
315.727	-0.00389	-0.01031	-0.00657	0.01113	0.04914	0.08666	0.11937	0.36996
316.318	-0.00384	-0.01026	-0.00671	0.01077	0.04827	0.08566	0.11771	0.36785
316.908	-0.00408	-0.01049	-0.0069	0.01053	0.04742	0.08434	0.11595	0.3657
317.499	-0.00418	-0.01069	-0.00734	0.01027	0.04668	0.08315	0.11428	0.36393
318.089	-0.00438	-0.01052	-0.00758	0.00999	0.04584	0.08193	0.11283	0.36219
318.68	-0.00429	-0.01049	-0.00783	0.00989	0.04548	0.08099	0.11174	0.36062
319.271	-0.00436	-0.01065	-0.008	0.00958	0.04448	0.07987	0.11032	0.35883
319.861	-0.00432	-0.01066	-0.00812	0.00926	0.04362	0.07886	0.10887	0.35725
320.451	-0.00418	-0.0108	-0.00828	0.00897	0.0429	0.07775	0.10744	0.35562
321.042	-0.00427	-0.01067	-0.00845	0.00873	0.04224	0.07681	0.10635	0.35407
321.632	-0.00419	-0.01087	-0.0086	0.0083	0.04165	0.07557	0.10494	0.35222
322.223	-0.00428	-0.01075	-0.00893	0.00819	0.04087	0.07481	0.10355	0.35049
322.813	-0.00427	-0.0107	-0.00897	0.00783	0.04048	0.07392	0.10262	0.34926
323.403	-0.00439	-0.01067	-0.00913	0.00769	0.03963	0.07299	0.10128	0.34783
323.994	-0.00475	-0.01088	-0.0092	0.00725	0.0386	0.07201	0.09992	0.34594
324.584	-0.00461	-0.01091	-0.00897	0.00684	0.03775	0.0707	0.09874	0.34443
325.174	-0.00469	-0.011	-0.00912	0.0066	0.03704	0.06967	0.09725	0.34268
325.764	-0.00464	-0.01103	-0.00909	0.00635	0.03627	0.06861	0.09576	0.34103
326.354	-0.00456	-0.01119	-0.00939	0.0061	0.0354	0.06752	0.09393	0.33925
326.944	-0.00452	-0.01129	-0.00939	0.00582	0.03457	0.06622	0.09254	0.33753
327.535	-0.00461	-0.01147	-0.00947	0.0056	0.03358	0.06511	0.0909	0.33568
328.125	-0.00485	-0.01156	-0.00979	0.00523	0.03251	0.06361	0.08919	0.33348
328.715	-0.00486	-0.01158	-0.00995	0.00503	0.03186	0.06233	0.08773	0.33155
329.305	-0.00482	-0.0118	-0.01	0.00484	0.03111	0.06108	0.08591	0.32971
329.895	-0.0047	-0.01159	-0.0099	0.00473	0.03031	0.0598	0.08425	0.32767
330.485	-0.00497	-0.01187	-0.00993	0.00433	0.02949	0.05823	0.08231	0.32555
331.074	-0.005	-0.01205	-0.0101	0.00404	0.02873	0.05679	0.08035	0.32339
331.664	-0.00515	-0.01222	-0.01005	0.00363	0.02799	0.05548	0.07835	0.32106
332.254	-0.00512	-0.01204	-0.01002	0.00339	0.02736	0.05409	0.07673	0.31916
332.844	-0.00521	-0.01216	-0.01023	0.00312	0.02646	0.05266	0.07487	0.31662
333.434	-0.00518	-0.01231	-0.01033	0.00287	0.02564	0.05103	0.073	0.31428
334.024	-0.00537	-0.01244	-0.01062	0.00251	0.02442	0.04954	0.07089	0.31174
334.613	-0.00549	-0.01256	-0.01054	0.00195	0.02334	0.04782	0.0689	0.30958
335.203	-0.00542	-0.0126	-0.01055	0.0017	0.02241	0.04636	0.06685	0.30723
335.793	-0.00551	-0.01284	-0.01073	0.00135	0.02129	0.04471	0.06483	0.30456
336.382	-0.00531	-0.01294	-0.01092	0.0013	0.02049	0.04311	0.06287	0.30231
336.972	-0.00557	-0.01312	-0.01121	9.78028E-4	0.01932	0.04151	0.06078	0.29965
337.561	-0.00559	-0.01315	-0.01136	6.43907E-4	0.01824	0.03987	0.05879	0.29739
338.151	-0.00556	-0.01323	-0.01149	4.10623E-4	0.01727	0.03846	0.05687	0.29508
338.74	-0.0056	-0.01322	-0.01153	1.8351E-4	0.01648	0.03699	0.05507	0.29261
339.33	-0.00572	-0.01312	-0.01165	8.20708E-5	0.01561	0.03558	0.05323	0.29027
339.919	-0.00574	-0.01323	-0.01195	-3.38409E-4	0.0149	0.03414	0.0514	0.28792
340.509	-0.00585	-0.01351	-0.01188	-6.6572E-4	0.01416	0.03262	0.04944	0.28586
341.098	-0.00583	-0.01345	-0.01184	-8.98426E-4	0.01335	0.03129	0.0478	0.2838
341.688	-0.00591	-0.01341	-0.01204	-0.00136	0.01247	0.03014	0.04643	0.28159
342.277	-0.00611	-0.01369	-0.01221	-0.00167	0.0118	0.02883	0.04507	0.27962
342.866	-0.00579	-0.01372	-0.01227	-0.00181	0.01101	0.02781	0.04357	0.27775
343.455	-0.00576	-0.01374	-0.01216	-0.00202	0.01021	0.02679	0.04233	0.27613
344.045	-0.0057	-0.01361	-0.01236	-0.00209	0.00957	0.02574	0.04117	0.27456
344.634	-0.00568	-0.01372	-0.01228	-0.0022	0.00878	0.02472	0.03991	0.27277
345.223	-0.00549	-0.01373	-0.01222	-0.00241	0.00834	0.02383	0.0388	0.27138
345.812	-0.00556	-0.0137	-0.01232	-0.00262	0.00773	0.02304	0.03746	0.26994
346.401	-0.00536	-0.01359	-0.01219	-0.00247	0.00747	0.02235	0.03644	0.26879
346.99	-0.00519	-0.01359	-0.01219	-0.00235	0.00721	0.02166	0.03558	0.26761
347.579	-0.00533	-0.01363	-0.01232	-0.00245	0.0067	0.02088	0.03457	0.26625
348.168	-0.00528	-0.01342	-0.01231	-0.00244	0.00633	0.02017	0.03365	0.26528
348.757	-0.00528	-0.01357	-0.01232	-0.00262	0.00595	0.01941	0.03261	0.26387
349.346	-0.00521	-0.01351	-0.01216	-0.00261	0.00575	0.0188	0.03184	0.26277
349.935	-0.00519	-0.01369	-0.01218	-0.00264	0.00547	0.01829	0.03086	0.26148
350.524	-0.0053	-0.01365	-0.0123	-0.00279	0.00509	0.01766	0.02997	0.26039
351.113	-0.00554	-0.01368	-0.01218	-0.00297	0.00468	0.01698	0.02916	0.25921
351.702	-0.00545	-0.01375	-0.01216	-0.00323	0.00436	0.01649	0.02845	0.25827
352.291	-0.00525	-0.01377	-0.01204	-0.00313	0.00409	0.01595	0.02792	0.25742
352.879	-0.00522	-0.01371	-0.01213	-0.00311	0.00379	0.01568	0.02721	0.25623
353.468	-0.00554	-0.01376	-0.01228	-0.00324	0.00335	0.01503	0.02631	0.25512
354.057	-0.00549	-0.01386	-0.01238	-0.00315	0.00313	0.01438	0.02547	0.25421
354.646	-0.00561	-0.01398	-0.01244	-0.00315	0.0026	0.0138	0.02455	0.25328
355.234	-0.00578	-0.01397	-0.01253	-0.00329	0.0023	0.01321	0.024	0.25225
355.823	-0.00598	-0.01404	-0.01292	-0.00345	0.00192	0.0126	0.02312	0.25146
356.411	-0.00612	-0.01446	-0.01318	-0.00372	0.00147	0.01195	0.02225	0.25053
357	-0.00609	-0.01451	-0.01332	-0.00396	0.00139	0.01162	0.02185	0.24982
357.588	-0.00625	-0.01457	-0.01338	-0.00397	0.00107	0.0112	0.02132	0.24892
358.177	-0.00644	-0.01463	-0.0133	-0.00414	7.15315E-4	0.01068	0.02086	0.24803
358.765	-0.00643	-0.0147	-0.01352	-0.00425	4.43474E-4	0.01021	0.02031	0.24717
359.354	-0.00668	-0.01485	-0.0137	-0.00444	7.15622E-5	0.00968	0.01961	0.24632
359.942	-0.00675	-0.01505	-0.01376	-0.00458	-2.79812E-4	0.00929	0.01906	0.24555
360.531	-0.00662	-0.015	-0.01379	-0.00482	-3.33789E-4	0.00913	0.01876	0.24462
361.119	-0.00656	-0.01496	-0.01377	-0.00477	-5.60153E-4	0.00887	0.01839	0.24409
361.707	-0.00647	-0.01499	-0.01399	-0.00477	-8.02663E-4	0.00854	0.01798	0.24354
362.295	-0.00663	-0.01502	-0.01419	-0.00495	-0.00116	0.00816	0.01763	0.24289
362.884	-0.00645	-0.01494	-0.01408	-0.00498	-0.00127	0.00801	0.01745	0.2424
363.472	-0.00651	-0.01512	-0.01427	-0.00514	-0.0015	0.00792	0.01718	0.24195
364.06	-0.00656	-0.01518	-0.01433	-0.00523	-0.00173	0.00765	0.01691	0.24146
364.648	-0.00678	-0.01514	-0.01442	-0.00526	-0.00189	0.00747	0.01659	0.24106
365.236	-0.00683	-0.01526	-0.01445	-0.00528	-0.00217	0.00723	0.01642	0.24078
365.824	-0.0067	-0.01545	-0.01445	-0.00531	-0.00229	0.00702	0.01615	0.24045
366.412	-0.00669	-0.01551	-0.01449	-0.0054	-0.00241	0.00693	0.01597	0.23989
367	-0.00674	-0.01549	-0.01451	-0.00564	-0.00249	0.00677	0.01583	0.23949
367.588	-0.00679	-0.01562	-0.01457	-0.00568	-0.00255	0.00658	0.01567	0.23902
368.176	-0.0067	-0.01563	-0.0144	-0.00586	-0.00275	0.0064	0.01558	0.2385
368.764	-0.00647	-0.01542	-0.01427	-0.00573	-0.00277	0.00645	0.01561	0.23834
369.352	-0.00664	-0.01545	-0.01431	-0.00579	-0.00297	0.00629	0.01546	0.23801
369.94	-0.00666	-0.01555	-0.01446	-0.00591	-0.00317	0.00615	0.01526	0.23772
370.528	-0.00661	-0.01566	-0.01448	-0.00603	-0.00316	0.00607	0.01516	0.2374
371.116	-0.00683	-0.01568	-0.01441	-0.00607	-0.00334	0.00606	0.01515	0.23706
371.703	-0.00672	-0.0156	-0.01439	-0.00613	-0.00334	0.00606	0.01528	0.23671
372.291	-0.00677	-0.01564	-0.01446	-0.00618	-0.00329	0.00588	0.0153	0.23654
372.879	-0.00669	-0.01563	-0.0144	-0.00612	-0.00337	0.00575	0.01536	0.2366
373.466	-0.00693	-0.01571	-0.01449	-0.00627	-0.00353	0.00558	0.01536	0.23625
374.054	-0.00704	-0.01571	-0.01444	-0.00645	-0.00361	0.00552	0.01537	0.23591
374.642	-0.00702	-0.01582	-0.01451	-0.00653	-0.00364	0.00543	0.01533	0.23577
375.229	-0.0071	-0.01591	-0.01467	-0.00658	-0.00372	0.00531	0.01542	0.23545
375.817	-0.00704	-0.01587	-0.01469	-0.00666	-0.00381	0.00518	0.01546	0.23524
376.404	-0.00717	-0.01584	-0.01481	-0.00669	-0.00384	0.00507	0.01558	0.23489
376.992	-0.00724	-0.01598	-0.01491	-0.0069	-0.00393	0.00494	0.01555	0.23449
377.579	-0.00724	-0.01601	-0.01508	-0.00707	-0.00387	0.00496	0.01555	0.23397
378.166	-0.00733	-0.016	-0.01512	-0.00724	-0.00401	0.00506	0.01578	0.23353
378.754	-0.00727	-0.01601	-0.01507	-0.00725	-0.00396	0.00503	0.01598	0.2334
379.341	-0.00723	-0.01586	-0.01509	-0.0072	-0.00397	0.00509	0.01601	0.23311
379.928	-0.00726	-0.01575	-0.01524	-0.00725	-0.004	0.00525	0.01604	0.23295
380.516	-0.00742	-0.0157	-0.01538	-0.00729	-0.00396	0.00534	0.01605	0.23262
381.103	-0.00757	-0.01557	-0.01542	-0.0072	-0.00387	0.00524	0.01615	0.23222
381.69	-0.00744	-0.01553	-0.0154	-0.00719	-0.00371	0.00524	0.01618	0.23197
382.277	-0.00749	-0.0154	-0.01537	-0.00708	-0.00366	0.00527	0.01628	0.23191
382.864	-0.00748	-0.01537	-0.01556	-0.00713	-0.00378	0.00523	0.01638	0.23165
383.452	-0.00742	-0.01542	-0.01568	-0.00731	-0.00392	0.00508	0.0163	0.2314
384.039	-0.00743	-0.01536	-0.01575	-0.00731	-0.00399	0.00509	0.01632	0.23122
384.626	-0.00745	-0.01539	-0.0158	-0.00739	-0.00415	0.00511	0.01634	0.23092
385.213	-0.00764	-0.01551	-0.01579	-0.00754	-0.00418	0.00502	0.01635	0.23051
385.8	-0.00766	-0.01552	-0.01584	-0.00763	-0.00421	0.00503	0.01622	0.2303
386.387	-0.00748	-0.01539	-0.01569	-0.00761	-0.00414	0.00501	0.01628	0.23019
386.973	-0.00751	-0.01532	-0.0155	-0.00749	-0.00416	0.00506	0.01637	0.23001
387.56	-0.0075	-0.01529	-0.01537	-0.00756	-0.00418	0.00504	0.01639	0.22987
388.147	-0.00763	-0.01542	-0.01539	-0.00765	-0.00429	0.0049	0.01617	0.22943
388.734	-0.00757	-0.01552	-0.01528	-0.00763	-0.00419	0.00486	0.016	0.22923
389.321	-0.00746	-0.01549	-0.01522	-0.0076	-0.00438	0.00483	0.01595	0.22883
389.908	-0.0075	-0.0155	-0.0153	-0.00767	-0.00459	0.00458	0.01588	0.22863
390.494	-0.00751	-0.01538	-0.01535	-0.00771	-0.00463	0.00452	0.01574	0.22829
391.081	-0.00749	-0.01515	-0.01531	-0.00766	-0.00464	0.00462	0.01581	0.22805
391.668	-0.00734	-0.01534	-0.0154	-0.00773	-0.00479	0.00451	0.01575	0.22764
392.254	-0.00729	-0.01537	-0.01539	-0.00774	-0.00486	0.00423	0.0158	0.22726
392.841	-0.00724	-0.01543	-0.01538	-0.00776	-0.00495	0.00416	0.01571	0.22696
393.427	-0.00733	-0.01541	-0.01548	-0.00793	-0.00518	0.0041	0.01553	0.2266
394.014	-0.00728	-0.01547	-0.01566	-0.00808	-0.00539	0.00403	0.01544	0.22602
394.6	-0.00717	-0.01549	-0.01561	-0.00811	-0.00543	0.00393	0.01537	0.22552
395.187	-0.00701	-0.01549	-0.01544	-0.00819	-0.00532	0.0038	0.01534	0.2253
395.773	-0.00699	-0.01547	-0.01545	-0.00818	-0.00531	0.00381	0.01542	0.22498
396.36	-0.00687	-0.01551	-0.01535	-0.00823	-0.00539	0.00372	0.01541	0.22468
396.946	-0.00686	-0.01561	-0.01557	-0.00832	-0.00564	0.00355	0.01504	0.22403
397.532	-0.0068	-0.01559	-0.01564	-0.00832	-0.00578	0.00346	0.01488	0.22346
398.119	-0.00673	-0.01556	-0.0156	-0.00826	-0.00578	0.0035	0.01474	0.22293
398.705	-0.00681	-0.01553	-0.01558	-0.00829	-0.00576	0.00352	0.01463	0.22257
399.291	-0.00692	-0.01561	-0.01581	-0.0085	-0.00598	0.00327	0.01428	0.22187
399.877	-0.00701	-0.01555	-0.01584	-0.00843	-0.00591	0.00304	0.01409	0.22135
400.463	-0.00682	-0.01542	-0.01582	-0.00838	-0.00596	0.00304	0.01399	0.22083
401.049	-0.00683	-0.01531	-0.01591	-0.00841	-0.00611	0.00289	0.0139	0.22037
401.636	-0.00694	-0.01534	-0.01595	-0.00856	-0.00629	0.00272	0.01363	0.21982
402.222	-0.00689	-0.01515	-0.01579	-0.00842	-0.00612	0.00287	0.01358	0.21952
402.808	-0.00689	-0.0152	-0.01577	-0.00853	-0.00619	0.0026	0.0133	0.21898
403.394	-0.00705	-0.01523	-0.01579	-0.00867	-0.00634	0.00226	0.01302	0.21834
403.98	-0.00711	-0.01512	-0.0158	-0.00869	-0.00636	0.00224	0.0128	0.21793
404.565	-0.00716	-0.01507	-0.0158	-0.00875	-0.00655	0.00219	0.01255	0.21738
405.151	-0.00718	-0.01517	-0.01573	-0.00884	-0.00662	0.00207	0.01245	0.21673
405.737	-0.00719	-0.01523	-0.01573	-0.00889	-0.00668	0.00196	0.01221	0.21614
406.323	-0.00736	-0.01527	-0.01561	-0.00892	-0.00677	0.00176	0.01203	0.21563
406.909	-0.00746	-0.01522	-0.01566	-0.00893	-0.00687	0.00168	0.01182	0.21507
407.495	-0.00751	-0.01519	-0.01567	-0.00891	-0.00699	0.00171	0.01163	0.21461
408.08	-0.00769	-0.0154	-0.01583	-0.00917	-0.00723	0.00138	0.01112	0.21386
408.666	-0.00764	-0.01524	-0.0157	-0.00905	-0.00724	0.0013	0.01101	0.2133
409.252	-0.00765	-0.01522	-0.01555	-0.00908	-0.00719	0.00122	0.01089	0.21296
409.837	-0.00768	-0.01516	-0.01555	-0.00901	-0.00711	0.00105	0.0106	0.21262
410.423	-0.0076	-0.01519	-0.01564	-0.00907	-0.00727	8.83887E-4	0.01039	0.21212
411.008	-0.00752	-0.01517	-0.01563	-0.00902	-0.00721	8.81489E-4	0.01039	0.21159
411.594	-0.00737	-0.01502	-0.01545	-0.00894	-0.00722	9.75548E-4	0.01037	0.21125
412.179	-0.00728	-0.01509	-0.01551	-0.00892	-0.00726	0.00102	0.01035	0.21089
412.765	-0.00731	-0.01513	-0.01557	-0.00892	-0.00734	8.99284E-4	0.0102	0.21034
413.35	-0.00728	-0.01521	-0.01555	-0.00887	-0.0073	9.21713E-4	0.01006	0.20988
413.936	-0.00719	-0.01517	-0.01558	-0.00882	-0.00716	8.02811E-4	0.01001	0.20957
414.521	-0.00727	-0.01528	-0.01565	-0.00895	-0.00723	6.6561E-4	0.00994	0.20916
415.106	-0.00724	-0.01532	-0.01573	-0.0089	-0.00726	7.90293E-4	0.00995	0.20881
415.692	-0.00724	-0.01531	-0.01576	-0.00886	-0.00718	7.17325E-4	0.00985	0.20859
416.277	-0.00723	-0.01538	-0.0157	-0.00887	-0.00715	6.36092E-4	0.00983	0.20815
416.862	-0.0072	-0.01528	-0.01559	-0.00884	-0.00705	6.43602E-4	0.00982	0.20795
417.447	-0.00712	-0.01525	-0.01561	-0.00884	-0.00709	7.08897E-4	0.00978	0.20766
418.032	-0.00716	-0.01536	-0.01565	-0.00896	-0.00729	6.20909E-4	0.00966	0.20727
418.617	-0.00703	-0.01524	-0.01568	-0.00891	-0.00717	6.68623E-4	0.00965	0.20707
419.203	-0.00709	-0.01533	-0.01582	-0.00905	-0.00734	6.10617E-4	0.00958	0.2068
419.788	-0.0071	-0.01529	-0.01583	-0.00891	-0.00728	7.05837E-4	0.0096	0.20635
420.373	-0.00707	-0.01523	-0.0158	-0.00884	-0.00725	8.64234E-4	0.00968	0.20615
420.958	-0.00731	-0.01535	-0.01593	-0.00895	-0.00713	9.92298E-4	0.00966	0.20593
421.542	-0.00744	-0.01531	-0.01604	-0.00886	-0.00721	0.00107	0.00976	0.20546
422.127	-0.00737	-0.01526	-0.01589	-0.00885	-0.00708	0.00128	0.01013	0.20522
422.712	-0.00738	-0.0152	-0.01592	-0.00886	-0.00706	0.00137	0.01024	0.20485
423.297	-0.00753	-0.01527	-0.01599	-0.00884	-0.00712	0.00134	0.0104	0.20462
423.882	-0.00768	-0.01531	-0.01618	-0.0089	-0.00713	0.00127	0.01047	0.2042
424.467	-0.00777	-0.01528	-0.0161	-0.00895	-0.00722	0.0013	0.01049	0.20395
425.051	-0.00782	-0.01531	-0.01607	-0.00895	-0.00715	0.00144	0.01059	0.2038
425.636	-0.00795	-0.01532	-0.01615	-0.00906	-0.00731	0.00135	0.01079	0.2035
426.221	-0.00796	-0.0153	-0.01617	-0.00903	-0.00728	0.00167	0.01101	0.20321
426.805	-0.00799	-0.01532	-0.01618	-0.00901	-0.00731	0.0016	0.01106	0.20279
427.39	-0.00805	-0.01534	-0.01607	-0.00909	-0.00721	0.00169	0.01118	0.20248
427.975	-0.00809	-0.01547	-0.01613	-0.00915	-0.00731	0.00181	0.0114	0.20226
428.559	-0.00807	-0.01552	-0.01614	-0.00919	-0.0072	0.00204	0.01164	0.20221
429.144	-0.0081	-0.01564	-0.01631	-0.00916	-0.00717	0.00215	0.01163	0.202
429.728	-0.00803	-0.01542	-0.01615	-0.00883	-0.0068	0.00236	0.01198	0.20188
430.313	-0.00802	-0.01538	-0.01612	-0.00866	-0.00649	0.00263	0.01239	0.20174
430.897	-0.00793	-0.01546	-0.01595	-0.00853	-0.0064	0.00282	0.01275	0.20165
431.481	-0.00788	-0.01549	-0.01594	-0.0085	-0.00622	0.00299	0.01293	0.20143
432.066	-0.00785	-0.01539	-0.01574	-0.00843	-0.00591	0.00314	0.01333	0.20142
432.65	-0.00772	-0.01524	-0.01558	-0.00809	-0.00567	0.00336	0.01363	0.20127
433.234	-0.00751	-0.01526	-0.0155	-0.00803	-0.00561	0.00334	0.01378	0.2009
433.818	-0.00739	-0.01518	-0.01544	-0.00802	-0.00542	0.00354	0.0139	0.20094
434.403	-0.00739	-0.01512	-0.01551	-0.00801	-0.00541	0.00362	0.01399	0.20084
434.987	-0.00743	-0.01509	-0.01545	-0.00804	-0.00529	0.00375	0.01416	0.20083
435.571	-0.00728	-0.01512	-0.01537	-0.00803	-0.0053	0.00379	0.01411	0.20069
436.155	-0.00703	-0.01503	-0.01508	-0.00787	-0.00503	0.00412	0.01439	0.20071
436.739	-0.007	-0.01507	-0.01524	-0.00789	-0.00493	0.00422	0.01452	0.20059
437.323	-0.00694	-0.01499	-0.01523	-0.00778	-0.00477	0.00443	0.01468	0.20064
437.907	-0.0069	-0.01487	-0.01513	-0.00766	-0.00453	0.00467	0.01478	0.20065
438.491	-0.00681	-0.01484	-0.015	-0.00759	-0.00434	0.00481	0.01498	0.2006
439.075	-0.00668	-0.01473	-0.01502	-0.00749	-0.00416	0.00502	0.01522	0.20075
439.659	-0.00642	-0.01461	-0.01498	-0.00719	-0.00408	0.00529	0.01551	0.20085
440.243	-0.00626	-0.01435	-0.01491	-0.0071	-0.00378	0.00564	0.01568	0.20076
440.826	-0.00624	-0.01411	-0.0148	-0.00693	-0.00362	0.00583	0.01586	0.20075
441.41	-0.00619	-0.01403	-0.01468	-0.00687	-0.00344	0.00602	0.01613	0.20075
441.994	-0.00619	-0.01424	-0.01469	-0.00708	-0.0035	0.00593	0.01614	0.20057
442.578	-0.00617	-0.01418	-0.01465	-0.00706	-0.00351	0.00589	0.0163	0.20056
443.161	-0.00623	-0.01401	-0.0147	-0.00708	-0.00318	0.00607	0.01645	0.20054
443.745	-0.00618	-0.01393	-0.01466	-0.00689	-0.00307	0.00623	0.01663	0.20059
444.328	-0.00628	-0.01396	-0.01472	-0.00692	-0.00315	0.00635	0.01664	0.20032
444.912	-0.00638	-0.01406	-0.01488	-0.00707	-0.00313	0.00654	0.0168	0.20028
445.496	-0.00646	-0.01403	-0.01494	-0.00701	-0.00309	0.00671	0.01706	0.20036
446.079	-0.0064	-0.01409	-0.01492	-0.00701	-0.00298	0.00683	0.01735	0.20023
446.662	-0.00635	-0.01411	-0.01491	-0.00693	-0.00283	0.00699	0.01759	0.20023
447.246	-0.00646	-0.01412	-0.01488	-0.0068	-0.00276	0.00723	0.01785	0.20019
447.829	-0.00647	-0.01407	-0.01493	-0.00683	-0.00254	0.00745	0.01816	0.20015
448.413	-0.00652	-0.01411	-0.01511	-0.00682	-0.00237	0.00775	0.01842	0.20017
448.996	-0.00645	-0.01393	-0.0151	-0.00662	-0.00212	0.0081	0.01881	0.20014
449.579	-0.0064	-0.0139	-0.01492	-0.00661	-0.00196	0.0084	0.0192	0.20009
450.163	-0.00635	-0.01387	-0.01497	-0.00661	-0.0018	0.0086	0.01955	0.19999
450.746	-0.00629	-0.01387	-0.01494	-0.00653	-0.00168	0.00882	0.01994	0.19998
451.329	-0.00621	-0.01395	-0.01489	-0.00659	-0.00161	0.00895	0.02012	0.19983
451.912	-0.00639	-0.014	-0.01492	-0.00661	-0.00147	0.00904	0.02036	0.19964
452.495	-0.00636	-0.01423	-0.01504	-0.00662	-0.00154	0.00916	0.02059	0.19951
453.078	-0.00646	-0.01448	-0.01518	-0.0066	-0.00156	0.00916	0.02079	0.19921
453.661	-0.00652	-0.01447	-0.01523	-0.00658	-0.00161	0.00924	0.02109	0.19897
454.244	-0.00651	-0.01433	-0.01524	-0.00635	-0.00129	0.00967	0.02149	0.19908
454.827	-0.00644	-0.0143	-0.01515	-0.00617	-0.00112	0.00999	0.02175	0.19916
455.41	-0.00632	-0.01419	-0.01495	-0.00588	-0.00105	0.01035	0.02213	0.19919
455.993	-0.00636	-0.01418	-0.0148	-0.00578	-9.28536E-4	0.01051	0.02239	0.19915
456.576	-0.00627	-0.01412	-0.01484	-0.00581	-7.54117E-4	0.01052	0.02262	0.19921
457.159	-0.00634	-0.01403	-0.01469	-0.00586	-4.99187E-4	0.01065	0.02294	0.1992
457.742	-0.00623	-0.01392	-0.0147	-0.00578	-3.13652E-4	0.01078	0.02308	0.19914
458.324	-0.0062	-0.01378	-0.01447	-0.00561	-2.49462E-5	0.01101	0.02337	0.19937
458.907	-0.00635	-0.01388	-0.01446	-0.00569	7.51224E-5	0.01116	0.02349	0.19925
459.49	-0.00615	-0.01388	-0.01441	-0.00553	4.30057E-4	0.01136	0.02388	0.19939
460.072	-0.00612	-0.01386	-0.01429	-0.00538	6.56591E-4	0.01157	0.02415	0.19956
460.655	-0.00619	-0.01388	-0.01414	-0.00526	8.80809E-4	0.01169	0.02458	0.19965
461.238	-0.00627	-0.01408	-0.01421	-0.00545	8.87784E-4	0.01152	0.02459	0.19951
461.82	-0.00629	-0.01413	-0.01435	-0.00535	0.00107	0.01171	0.02491	0.1994
462.403	-0.0061	-0.01398	-0.01414	-0.00507	0.00134	0.01207	0.02522	0.19952
462.985	-0.00614	-0.01383	-0.01409	-0.00497	0.00166	0.01243	0.02544	0.19953
463.567	-0.00619	-0.01375	-0.01407	-0.00482	0.00189	0.01277	0.02574	0.19959
464.15	-0.00628	-0.01389	-0.01409	-0.00483	0.00201	0.01291	0.02597	0.19977
464.732	-0.0063	-0.01374	-0.01396	-0.00475	0.00223	0.01302	0.02637	0.19988
465.315	-0.00624	-0.01362	-0.01381	-0.00474	0.00263	0.0133	0.02675	0.2
465.897	-0.00622	-0.01363	-0.01379	-0.00468	0.00291	0.0135	0.02698	0.20025
466.479	-0.0063	-0.01364	-0.01402	-0.00475	0.00299	0.01366	0.02712	0.20028
467.061	-0.00633	-0.01376	-0.01409	-0.00481	0.00323	0.01383	0.02734	0.20011
467.643	-0.00633	-0.01396	-0.01427	-0.0049	0.00328	0.01384	0.02736	0.19991
468.226	-0.00629	-0.01383	-0.01419	-0.00477	0.00356	0.01422	0.02784	0.19998
468.808	-0.00616	-0.01373	-0.01401	-0.00449	0.00383	0.01467	0.02827	0.20024
469.39	-0.00597	-0.01368	-0.01398	-0.00422	0.00407	0.01509	0.02863	0.20051
469.972	-0.00608	-0.0137	-0.01392	-0.00426	0.00419	0.01534	0.02883	0.20042
470.554	-0.00622	-0.01381	-0.01409	-0.00429	0.00431	0.01561	0.02911	0.2003
471.136	-0.00589	-0.01354	-0.01392	-0.00403	0.00463	0.01606	0.02958	0.20055
471.718	-0.00606	-0.01348	-0.01388	-0.00421	0.00477	0.01626	0.02988	0.20044
472.3	-0.00616	-0.01348	-0.01391	-0.00415	0.00475	0.01664	0.03005	0.20027
472.882	-0.00599	-0.01336	-0.01386	-0.00399	0.00487	0.01706	0.03025	0.20041
473.463	-0.00592	-0.01308	-0.01363	-0.00383	0.00514	0.01744	0.03075	0.20054
474.045	-0.00592	-0.01301	-0.0136	-0.00392	0.00537	0.01759	0.03103	0.20058
474.627	-0.00598	-0.01301	-0.01378	-0.00402	0.00537	0.0178	0.03112	0.20082
475.209	-0.00597	-0.01297	-0.01359	-0.00394	0.00545	0.018	0.03145	0.20094
475.79	-0.00608	-0.01293	-0.01365	-0.0039	0.00547	0.01812	0.03178	0.20079
476.372	-0.00582	-0.01266	-0.01345	-0.00377	0.00586	0.01845	0.03212	0.20089
476.954	-0.00591	-0.01269	-0.01349	-0.00371	0.00604	0.01859	0.03215	0.20078
477.535	-0.00581	-0.01254	-0.01332	-0.00351	0.00611	0.01901	0.03253	0.20086
478.117	-0.00578	-0.01253	-0.0132	-0.00355	0.00618	0.01927	0.03268	0.20054
478.698	-0.00573	-0.01253	-0.01309	-0.00346	0.00624	0.01941	0.03281	0.20048
479.28	-0.0057	-0.01257	-0.01309	-0.00348	0.00622	0.0196	0.03297	0.20054
479.861	-0.00556	-0.0123	-0.01297	-0.00329	0.0064	0.01998	0.03352	0.20086
480.442	-0.00544	-0.01226	-0.01297	-0.00322	0.00665	0.0202	0.03381	0.20107
481.024	-0.00551	-0.01239	-0.01322	-0.00333	0.00653	0.02024	0.03386	0.20101
481.605	-0.00546	-0.01238	-0.01332	-0.00334	0.00663	0.02022	0.03401	0.20114
482.186	-0.00546	-0.01236	-0.01326	-0.0032	0.00678	0.02053	0.03433	0.20137
482.768	-0.00539	-0.01224	-0.01312	-0.00306	0.00677	0.02069	0.03464	0.20154
483.349	-0.00557	-0.01246	-0.01333	-0.0031	0.00659	0.02058	0.03464	0.20141
483.93	-0.00548	-0.01237	-0.01326	-0.0029	0.00681	0.02079	0.03497	0.20167
484.511	-0.00542	-0.01237	-0.01336	-0.00299	0.00692	0.02088	0.03512	0.20176
485.092	-0.00549	-0.01237	-0.01334	-0.00297	0.00708	0.02099	0.03542	0.2018
485.673	-0.00555	-0.0126	-0.01351	-0.00293	0.00717	0.02121	0.03548	0.20188
486.254	-0.00544	-0.01255	-0.01334	-0.00272	0.00733	0.02158	0.03582	0.20225
486.835	-0.00548	-0.0127	-0.01327	-0.00268	0.00746	0.02168	0.03608	0.20223
487.416	-0.00547	-0.01275	-0.01333	-0.00262	0.00758	0.02187	0.03638	0.20252
487.997	-0.00521	-0.01271	-0.01315	-0.00242	0.00795	0.02224	0.03663	0.20291
488.578	-0.00537	-0.01285	-0.01322	-0.00231	0.00796	0.02256	0.03691	0.20306
489.159	-0.00526	-0.01291	-0.01312	-0.00228	0.00802	0.02286	0.03723	0.20326
489.74	-0.00531	-0.01304	-0.01335	-0.00235	0.00813	0.023	0.03754	0.20348
490.32	-0.00525	-0.01303	-0.01341	-0.00218	0.00837	0.02336	0.03802	0.20404
490.901	-0.00517	-0.0131	-0.0133	-0.00215	0.00851	0.02381	0.03861	0.20451
491.482	-0.00522	-0.01297	-0.01335	-0.00193	0.00886	0.0242	0.03912	0.2049
492.063	-0.00537	-0.0133	-0.01347	-0.00205	0.00904	0.02446	0.03925	0.20488
492.643	-0.00547	-0.01335	-0.01357	-0.00207	0.00916	0.02462	0.03953	0.20497
493.224	-0.00547	-0.01336	-0.01335	-0.00188	0.00943	0.0251	0.03999	0.20516
493.804	-0.00546	-0.01321	-0.01295	-0.00164	0.00978	0.02571	0.04076	0.2054
494.385	-0.00521	-0.01316	-0.0131	-0.0014	0.01012	0.02616	0.04143	0.20565
494.965	-0.00512	-0.01315	-0.01312	-0.00134	0.01069	0.02679	0.04205	0.20602
495.546	-0.00489	-0.01309	-0.01284	-0.00121	0.01128	0.02763	0.04276	0.20675
496.126	-0.005	-0.01315	-0.01296	-0.00122	0.01141	0.02803	0.04313	0.20703
496.706	-0.00513	-0.01314	-0.01291	-0.00101	0.01183	0.02829	0.0435	0.20731
497.287	-0.00515	-0.01311	-0.01277	-9.18158E-4	0.0123	0.02861	0.04403	0.2077
497.867	-0.00485	-0.01278	-0.01253	-6.28278E-4	0.0125	0.02894	0.04458	0.2082
498.447	-0.00504	-0.01282	-0.01253	-5.24282E-4	0.0125	0.02893	0.04491	0.2086
499.028	-0.00499	-0.01273	-0.01252	-3.18231E-4	0.01272	0.02913	0.04515	0.20891
499.608	-0.00502	-0.01266	-0.01248	-1.55415E-4	0.01296	0.02932	0.04546	0.20919
500.188	-0.00522	-0.01259	-0.01251	-1.66915E-4	0.01307	0.02953	0.04557	0.20952
500.768	-0.00523	-0.01252	-0.01246	-1.38402E-4	0.01327	0.02967	0.04585	0.21029
501.348	-0.00517	-0.0123	-0.01236	6.96731E-5	0.01361	0.03008	0.04629	0.21127
501.928	-0.00482	-0.01225	-0.01208	3.52819E-4	0.01376	0.03046	0.04644	0.21233
502.508	-0.00477	-0.01216	-0.01196	4.64515E-4	0.01416	0.03058	0.04667	0.21338
503.088	-0.00486	-0.01195	-0.0119	6.32018E-4	0.01449	0.0307	0.04688	0.21435
503.668	-0.00481	-0.0118	-0.01164	5.81214E-4	0.01464	0.03071	0.04685	0.21554
504.248	-0.00487	-0.01173	-0.01155	6.40318E-4	0.0147	0.03088	0.04714	0.21666
504.828	-0.00487	-0.01164	-0.01135	8.09349E-4	0.01487	0.03108	0.04744	0.21788
505.407	-0.00463	-0.01147	-0.01117	9.61394E-4	0.01529	0.03145	0.04779	0.21935
505.987	-0.00466	-0.01144	-0.01123	9.77993E-4	0.01539	0.03152	0.04776	0.22051
506.567	-0.00444	-0.01137	-0.01088	0.00104	0.01567	0.03178	0.04783	0.22189
507.147	-0.00461	-0.01149	-0.01085	0.00117	0.01589	0.03164	0.04789	0.22278
507.726	-0.00473	-0.01153	-0.01102	0.00117	0.01587	0.03164	0.04793	0.22346
508.306	-0.00462	-0.01155	-0.01097	0.00131	0.01602	0.03178	0.04802	0.22446
508.885	-0.00456	-0.01151	-0.01093	0.00128	0.01596	0.03192	0.04789	0.22537
509.465	-0.00461	-0.01154	-0.01102	0.0012	0.01582	0.03193	0.04776	0.22628
510.045	-0.00486	-0.01177	-0.0112	0.00103	0.01592	0.03183	0.04766	0.22695
510.624	-0.00475	-0.01177	-0.01129	8.81985E-4	0.01618	0.03215	0.04786	0.22748
511.203	-0.00477	-0.0118	-0.01133	8.48903E-4	0.01645	0.03245	0.04802	0.22841
511.783	-0.00473	-0.01189	-0.01143	7.62647E-4	0.01648	0.0326	0.04821	0.22899
512.362	-0.00462	-0.01193	-0.01145	7.44443E-4	0.01659	0.03271	0.04842	0.22964
512.942	-0.00478	-0.01197	-0.01155	7.74235E-4	0.01675	0.03302	0.04878	0.23013
513.521	-0.00485	-0.01188	-0.01158	7.28706E-4	0.01673	0.03316	0.04889	0.23043
514.1	-0.00513	-0.01192	-0.01168	7.86117E-4	0.0169	0.03334	0.04938	0.23081
514.679	-0.0051	-0.01168	-0.01162	0.00104	0.01705	0.03383	0.0497	0.23118
515.258	-0.00488	-0.01166	-0.01163	0.00116	0.01732	0.03423	0.05021	0.23153
515.838	-0.00488	-0.01167	-0.0117	0.00156	0.01764	0.03467	0.0508	0.23172
516.417	-0.0047	-0.01151	-0.0115	0.00168	0.01798	0.03507	0.05122	0.23209
516.996	-0.00482	-0.01168	-0.01171	0.00165	0.01809	0.03538	0.05148	0.2321
517.575	-0.00496	-0.01173	-0.01176	0.00161	0.01812	0.0356	0.05175	0.23203
518.154	-0.00504	-0.0118	-0.01184	0.00171	0.01837	0.03582	0.05216	0.23225
518.733	-0.00538	-0.01195	-0.01202	0.00158	0.01846	0.03611	0.05226	0.23245
519.312	-0.00531	-0.01189	-0.01208	0.00171	0.01865	0.03655	0.05277	0.23292
519.89	-0.00537	-0.01186	-0.01198	0.00204	0.01898	0.03699	0.05319	0.23355
520.469	-0.00537	-0.01171	-0.01193	0.00219	0.01932	0.03739	0.05375	0.2342
521.048	-0.0052	-0.01168	-0.01201	0.00242	0.01956	0.03778	0.05432	0.23482
521.627	-0.00524	-0.01153	-0.01193	0.00263	0.0199	0.03809	0.05481	0.23524
522.205	-0.00503	-0.01131	-0.01155	0.00294	0.02024	0.03873	0.0552	0.23616
522.784	-0.0052	-0.01138	-0.01144	0.00299	0.0204	0.03901	0.05537	0.2371
523.363	-0.00533	-0.01145	-0.0114	0.00299	0.02036	0.03934	0.05556	0.23785
523.941	-0.00525	-0.01151	-0.01119	0.00314	0.0206	0.0396	0.05599	0.23885
524.52	-0.00517	-0.01149	-0.01122	0.0032	0.02084	0.03989	0.0563	0.24005
525.098	-0.00526	-0.0116	-0.01111	0.00319	0.02107	0.04012	0.05647	0.24129
525.677	-0.00531	-0.01157	-0.01104	0.00347	0.02149	0.04049	0.05659	0.24263
526.255	-0.00515	-0.01142	-0.01086	0.00371	0.02183	0.04088	0.0568	0.24377
526.834	-0.00502	-0.01148	-0.01088	0.00385	0.02207	0.04098	0.05703	0.24492
527.412	-0.00497	-0.01143	-0.01069	0.00405	0.02234	0.04142	0.05734	0.24605
527.99	-0.00509	-0.0115	-0.01063	0.00403	0.02249	0.04164	0.05765	0.24714
528.569	-0.005	-0.01145	-0.0108	0.00404	0.02271	0.04203	0.05799	0.2484
529.147	-0.0049	-0.01143	-0.01066	0.00413	0.02297	0.04231	0.05832	0.24966
529.725	-0.00493	-0.01161	-0.0109	0.00414	0.02314	0.04271	0.05867	0.2509
530.303	-0.00491	-0.01161	-0.01084	0.00413	0.02332	0.04302	0.05895	0.25199
530.882	-0.00494	-0.01163	-0.01092	0.00421	0.02335	0.04316	0.05936	0.25287
531.46	-0.00496	-0.01163	-0.01087	0.00424	0.0234	0.04344	0.05962	0.25363
532.038	-0.00491	-0.01162	-0.01077	0.00418	0.02349	0.04373	0.05992	0.25455
532.616	-0.00493	-0.01165	-0.01085	0.00429	0.02372	0.04401	0.06037	0.25528
533.194	-0.00493	-0.0118	-0.01077	0.00428	0.02393	0.04436	0.0608	0.25616
533.772	-0.00488	-0.0118	-0.01068	0.00438	0.02431	0.04487	0.0615	0.25699
534.35	-0.00491	-0.01183	-0.01075	0.00435	0.02454	0.0452	0.06199	0.25762
534.927	-0.0049	-0.01175	-0.0107	0.00456	0.02487	0.04568	0.06263	0.25847
535.505	-0.00485	-0.01164	-0.01059	0.00469	0.02528	0.04617	0.0633	0.25931
536.083	-0.00495	-0.01168	-0.01069	0.00477	0.02555	0.04665	0.06389	0.26005
536.661	-0.00494	-0.01164	-0.01058	0.00506	0.02589	0.04724	0.06469	0.26073
537.239	-0.00492	-0.01155	-0.01061	0.00519	0.0262	0.04786	0.06541	0.26129
537.816	-0.00503	-0.01165	-0.01061	0.00519	0.0265	0.04837	0.06616	0.26192
538.394	-0.00509	-0.01181	-0.01064	0.00514	0.02686	0.0489	0.06692	0.26267
538.972	-0.0052	-0.01187	-0.01058	0.0052	0.02718	0.0495	0.06768	0.26346
539.549	-0.00511	-0.01182	-0.01067	0.00525	0.02753	0.05009	0.06859	0.26437
540.127	-0.00515	-0.01182	-0.01067	0.00533	0.02794	0.05068	0.06935	0.2652
540.704	-0.0053	-0.01199	-0.01069	0.00538	0.02828	0.05126	0.07015	0.26603
541.282	-0.00524	-0.01196	-0.01074	0.00554	0.02886	0.05202	0.07117	0.26694
541.859	-0.00515	-0.01185	-0.01061	0.00573	0.02946	0.05289	0.07233	0.26797
542.436	-0.00506	-0.01185	-0.0106	0.00596	0.03011	0.0537	0.07342	0.26898
543.014	-0.00498	-0.01189	-0.01056	0.00596	0.03074	0.05456	0.07455	0.27016
543.591	-0.00486	-0.01178	-0.01049	0.00634	0.03147	0.05554	0.07588	0.27155
544.168	-0.00491	-0.01191	-0.01061	0.00652	0.03197	0.05646	0.07719	0.27269
544.745	-0.00497	-0.01196	-0.01055	0.00667	0.0325	0.05741	0.07838	0.27392
545.323	-0.00483	-0.01186	-0.01049	0.00694	0.03312	0.05838	0.07959	0.27523
545.9	-0.0048	-0.01189	-0.01054	0.00718	0.0337	0.0593	0.08077	0.27659
546.477	-0.00479	-0.01184	-0.0104	0.00741	0.03437	0.0603	0.08214	0.27807
547.054	-0.00466	-0.01187	-0.01036	0.0076	0.03496	0.06116	0.08344	0.2794
547.631	-0.00461	-0.01177	-0.01026	0.00791	0.03564	0.06211	0.08471	0.28088
548.208	-0.00453	-0.01179	-0.01023	0.00805	0.03631	0.06316	0.08604	0.28241
548.785	-0.0045	-0.01173	-0.01008	0.00818	0.03704	0.06414	0.08726	0.28403
549.362	-0.00428	-0.01157	-0.00998	0.00845	0.03782	0.06514	0.08878	0.28569
549.939	-0.00419	-0.01159	-0.00999	0.00869	0.03847	0.06605	0.09022	0.28735
550.515	-0.00415	-0.0115	-0.01	0.00883	0.03904	0.06707	0.0917	0.28887
551.092	-0.00406	-0.01149	-0.00991	0.00901	0.03976	0.06833	0.0933	0.29041
551.669	-0.00416	-0.01157	-0.00993	0.00918	0.04042	0.06939	0.09469	0.2921
552.246	-0.00396	-0.01149	-0.00977	0.00956	0.04128	0.07059	0.09632	0.29392
552.822	-0.00388	-0.01138	-0.00964	0.00988	0.04206	0.07182	0.09795	0.2957
553.399	-0.00389	-0.01136	-0.00965	0.01005	0.04268	0.07285	0.09944	0.29734
553.976	-0.0039	-0.01138	-0.0096	0.0102	0.04334	0.0739	0.10093	0.29895
554.552	-0.00398	-0.01146	-0.00956	0.01043	0.04391	0.07498	0.10252	0.30058
555.129	-0.00397	-0.01146	-0.0095	0.01086	0.04455	0.0762	0.10409	0.3023
555.705	-0.004	-0.01154	-0.00946	0.01098	0.04525	0.0773	0.10562	0.30376
556.282	-0.004	-0.01149	-0.00932	0.01119	0.04603	0.0784	0.10708	0.30546
556.858	-0.00384	-0.01134	-0.00922	0.01151	0.04681	0.0796	0.10864	0.30717
557.434	-0.00379	-0.01124	-0.00914	0.01163	0.04753	0.08084	0.11023	0.30873
558.011	-0.00378	-0.01118	-0.00914	0.01179	0.04815	0.08198	0.1118	0.31028
558.587	-0.00378	-0.01116	-0.00913	0.01197	0.04886	0.08315	0.1133	0.31189
559.163	-0.00378	-0.01113	-0.00917	0.01212	0.04951	0.08446	0.1148	0.31351
559.739	-0.0038	-0.01118	-0.00913	0.01227	0.05024	0.08568	0.11646	0.315
560.315	-0.00373	-0.01105	-0.00913	0.01256	0.05105	0.08689	0.1181	0.31658
560.892	-0.00373	-0.01105	-0.00914	0.01272	0.05173	0.08807	0.11981	0.31802
561.468	-0.00377	-0.01116	-0.0091	0.01289	0.05249	0.08927	0.12134	0.31954
562.044	-0.00377	-0.01108	-0.00901	0.01316	0.05337	0.09062	0.12304	0.321
562.62	-0.00377	-0.01109	-0.00895	0.01342	0.05419	0.0919	0.12469	0.32259
563.196	-0.00382	-0.01108	-0.0089	0.01365	0.05505	0.09313	0.12637	0.32422
563.772	-0.00376	-0.011	-0.00876	0.01395	0.05607	0.09461	0.12816	0.32586
564.347	-0.00378	-0.01104	-0.00874	0.01415	0.05688	0.09599	0.12996	0.3274
564.923	-0.00378	-0.01098	-0.0087	0.01435	0.05783	0.09732	0.1318	0.3289
565.499	-0.00374	-0.01093	-0.00853	0.01471	0.0588	0.09873	0.13367	0.33051
566.075	-0.00373	-0.01089	-0.0085	0.015	0.05978	0.10016	0.13559	0.33224
566.651	-0.00371	-0.01082	-0.00848	0.01523	0.0607	0.10164	0.13733	0.33374
567.226	-0.0038	-0.01078	-0.0084	0.01539	0.06162	0.10306	0.13916	0.33537
567.802	-0.00372	-0.01068	-0.00834	0.01562	0.0626	0.10452	0.14102	0.33719
568.377	-0.00368	-0.01061	-0.00825	0.01592	0.06362	0.10603	0.14295	0.33884
568.953	-0.00377	-0.01063	-0.00825	0.0161	0.06451	0.10746	0.14489	0.34059
569.529	-0.00383	-0.01058	-0.00811	0.01639	0.06546	0.10893	0.14686	0.34245
570.104	-0.00379	-0.01053	-0.008	0.01665	0.06648	0.11049	0.14883	0.34438
570.679	-0.00376	-0.01044	-0.00782	0.01701	0.06752	0.11206	0.15101	0.34626
571.255	-0.00366	-0.01028	-0.00768	0.01733	0.0687	0.11364	0.15327	0.3482
571.83	-0.0037	-0.01024	-0.00762	0.01755	0.06959	0.1152	0.15541	0.35009
572.406	-0.00376	-0.01019	-0.00753	0.0178	0.07054	0.11685	0.1576	0.35209
572.981	-0.00369	-0.01015	-0.00743	0.01807	0.07162	0.1186	0.15985	0.3542
573.556	-0.0037	-0.01006	-0.0073	0.01835	0.0727	0.12038	0.16225	0.35636
574.131	-0.00372	-0.01012	-0.00736	0.01851	0.07371	0.1221	0.16462	0.35856
574.706	-0.00373	-0.01004	-0.00733	0.01876	0.07483	0.12393	0.16711	0.36091
575.282	-0.0037	-0.01003	-0.0073	0.01899	0.07587	0.12576	0.16961	0.36321
575.857	-0.00374	-0.00997	-0.00725	0.01922	0.07693	0.12765	0.17223	0.36562
576.432	-0.00372	-0.00989	-0.00719	0.01947	0.07806	0.12957	0.17487	0.36817
577.007	-0.00364	-0.0099	-0.00708	0.01977	0.07918	0.13167	0.1777	0.37097
577.582	-0.00363	-0.00987	-0.00711	0.01994	0.08033	0.13376	0.18053	0.37386
578.157	-0.00359	-0.00984	-0.007	0.0202	0.08152	0.13587	0.18343	0.37678
578.731	-0.00357	-0.00972	-0.0069	0.02049	0.08281	0.13802	0.18662	0.38003
579.306	-0.00354	-0.00973	-0.00683	0.02076	0.08405	0.1402	0.1898	0.38325
579.881	-0.00354	-0.00966	-0.00678	0.02097	0.08529	0.14251	0.1931	0.38662
580.456	-0.0035	-0.00969	-0.00673	0.02122	0.08657	0.14487	0.19646	0.3901
581.031	-0.00349	-0.00967	-0.0067	0.02144	0.08789	0.14734	0.19996	0.3937
581.605	-0.00344	-0.00975	-0.00671	0.0217	0.08928	0.14981	0.20362	0.39747
582.18	-0.00342	-0.00973	-0.00665	0.02202	0.0907	0.15235	0.20734	0.4014
582.754	-0.00347	-0.00984	-0.00671	0.02218	0.09199	0.1548	0.21097	0.40541
583.329	-0.00347	-0.00985	-0.00666	0.02248	0.09336	0.15743	0.21473	0.40959
583.904	-0.00344	-0.00985	-0.00663	0.02276	0.09487	0.16012	0.21863	0.41399
584.478	-0.0034	-0.00986	-0.00656	0.02305	0.09634	0.16283	0.22262	0.41852
585.052	-0.00337	-0.00982	-0.00659	0.02331	0.09775	0.1656	0.22672	0.42316
585.627	-0.00336	-0.00983	-0.00655	0.02362	0.09918	0.16838	0.23081	0.42791
586.201	-0.00329	-0.00972	-0.00643	0.02398	0.10069	0.17126	0.23507	0.43287
586.776	-0.00324	-0.00976	-0.0063	0.02431	0.10219	0.17412	0.23934	0.43774
587.35	-0.00324	-0.00973	-0.0063	0.02453	0.10363	0.17693	0.24366	0.4428
587.924	-0.00318	-0.00977	-0.0063	0.02482	0.10509	0.17981	0.24805	0.44792
588.498	-0.00316	-0.0097	-0.00627	0.02508	0.10656	0.18272	0.25249	0.45316
589.072	-0.0032	-0.0097	-0.00624	0.02536	0.10803	0.18562	0.25699	0.45849
589.646	-0.00321	-0.00962	-0.00614	0.02569	0.1095	0.18851	0.26163	0.46379
590.221	-0.00321	-0.00965	-0.00603	0.02597	0.111	0.19145	0.26626	0.46931
590.795	-0.00313	-0.00959	-0.00592	0.02625	0.11252	0.19451	0.27094	0.47482
591.369	-0.00307	-0.00953	-0.00584	0.02656	0.11413	0.19751	0.27568	0.48033
591.943	-0.00316	-0.00961	-0.0058	0.02688	0.11558	0.20044	0.28034	0.48581
592.516	-0.00317	-0.00954	-0.00576	0.02715	0.11701	0.2033	0.28515	0.49143
593.09	-0.00309	-0.00945	-0.00565	0.02756	0.11854	0.20619	0.2899	0.49708
593.664	-0.00313	-0.00945	-0.00567	0.02779	0.11991	0.20898	0.29449	0.50262
594.238	-0.00309	-0.00943	-0.00558	0.02813	0.12133	0.21192	0.29922	0.50826
594.812	-0.00309	-0.00938	-0.00556	0.02835	0.12276	0.21485	0.30403	0.51384
595.385	-0.00313	-0.00948	-0.00556	0.0286	0.12412	0.21761	0.3087	0.51936
595.959	-0.00305	-0.00949	-0.00553	0.02891	0.12546	0.22041	0.31342	0.52497
596.533	-0.0031	-0.00956	-0.00548	0.02921	0.12679	0.22318	0.31815	0.5305
597.106	-0.00313	-0.00958	-0.00546	0.0295	0.12818	0.22588	0.32288	0.53596
597.68	-0.00306	-0.00954	-0.00542	0.02984	0.12959	0.22866	0.32758	0.54151
598.253	-0.00306	-0.00954	-0.00535	0.03013	0.13091	0.23137	0.33217	0.54694
598.827	-0.00306	-0.0095	-0.00538	0.03036	0.13223	0.23408	0.3368	0.55238
599.4	-0.00299	-0.00944	-0.00526	0.03081	0.13361	0.23686	0.34137	0.5578
599.974	-0.00302	-0.00946	-0.00518	0.03109	0.135	0.23945	0.34579	0.56324
600.547	-0.00302	-0.00946	-0.00516	0.03142	0.13638	0.24204	0.35024	0.56854
601.12	-0.00302	-0.00951	-0.00515	0.03165	0.13772	0.24459	0.35451	0.57369
601.693	-0.00302	-0.00951	-0.00509	0.03199	0.13911	0.24728	0.35873	0.57889
602.267	-0.00301	-0.00954	-0.00514	0.03229	0.14036	0.2498	0.36302	0.58387
602.84	-0.00301	-0.00958	-0.00512	0.03258	0.14161	0.25221	0.36699	0.58871
603.413	-0.00306	-0.00966	-0.00521	0.03276	0.1428	0.25467	0.37095	0.59331
603.986	-0.00301	-0.00968	-0.00522	0.03304	0.14395	0.25701	0.37477	0.59789
604.559	-0.00299	-0.0097	-0.00523	0.0333	0.14518	0.25935	0.37842	0.60221
605.132	-0.00297	-0.00978	-0.0052	0.03359	0.14639	0.26159	0.38201	0.60635
605.705	-0.00298	-0.00977	-0.00515	0.03386	0.14759	0.26386	0.3854	0.61028
606.278	-0.003	-0.0098	-0.00514	0.03412	0.1488	0.26594	0.38865	0.61393
606.851	-0.00292	-0.00975	-0.00504	0.03451	0.15001	0.26811	0.39175	0.61754
607.424	-0.00289	-0.0097	-0.00502	0.03479	0.15117	0.27018	0.39464	0.62091
607.996	-0.00287	-0.00966	-0.00499	0.03504	0.15241	0.27218	0.39742	0.62396
608.569	-0.00281	-0.00964	-0.00498	0.0353	0.15364	0.27415	0.39993	0.62682
609.142	-0.00279	-0.00969	-0.00495	0.03558	0.15473	0.27589	0.40226	0.62948
609.715	-0.00281	-0.0097	-0.00494	0.03582	0.15573	0.27759	0.40453	0.63189
610.287	-0.00278	-0.00969	-0.00491	0.0361	0.15681	0.27926	0.40669	0.63403
610.86	-0.00277	-0.00969	-0.00487	0.03638	0.15791	0.28087	0.40856	0.63612
611.432	-0.00275	-0.0097	-0.00482	0.03668	0.15907	0.28231	0.4104	0.63782
612.005	-0.00274	-0.00971	-0.0048	0.03688	0.16004	0.28384	0.41223	0.63924
612.577	-0.0028	-0.00974	-0.00478	0.03709	0.16098	0.28528	0.41376	0.64046
613.15	-0.00283	-0.00975	-0.00489	0.0373	0.16191	0.28667	0.41513	0.64145
613.722	-0.00287	-0.00979	-0.00499	0.03748	0.16276	0.28784	0.41633	0.64207
614.294	-0.00293	-0.00984	-0.00505	0.03766	0.16371	0.28909	0.41741	0.64242
614.867	-0.00294	-0.00985	-0.00497	0.03795	0.16463	0.29036	0.41845	0.64292
615.439	-0.00289	-0.00978	-0.0049	0.03826	0.16562	0.29151	0.41934	0.64331
616.011	-0.0028	-0.00969	-0.00481	0.03854	0.16672	0.29273	0.42018	0.64352
616.583	-0.00281	-0.00972	-0.00475	0.03875	0.16768	0.29388	0.42091	0.64358
617.156	-0.00276	-0.00966	-0.0047	0.03906	0.16861	0.29502	0.42155	0.64346
617.728	-0.00274	-0.00966	-0.00468	0.03928	0.16952	0.2961	0.42227	0.64333
618.3	-0.00277	-0.00969	-0.00471	0.03944	0.17036	0.29721	0.42281	0.64296
618.872	-0.00276	-0.00975	-0.00468	0.03956	0.17127	0.29814	0.4233	0.64256
619.444	-0.00279	-0.00972	-0.00466	0.03981	0.17222	0.29916	0.42392	0.6424
620.016	-0.0028	-0.00977	-0.00467	0.04004	0.17313	0.30023	0.42448	0.64205
620.587	-0.00279	-0.00976	-0.00466	0.04016	0.17396	0.30124	0.42502	0.64165
621.159	-0.00276	-0.00971	-0.00459	0.04036	0.17493	0.30238	0.42572	0.64124
621.731	-0.00274	-0.00967	-0.0046	0.04048	0.17589	0.30358	0.42629	0.64093
622.303	-0.00278	-0.00967	-0.00456	0.04067	0.17681	0.30468	0.42693	0.6406
622.875	-0.00283	-0.00973	-0.00458	0.04076	0.17767	0.30584	0.4277	0.64045
623.446	-0.00288	-0.00979	-0.00464	0.0408	0.17847	0.30713	0.4284	0.64043
624.018	-0.00292	-0.00982	-0.0047	0.04092	0.17936	0.30831	0.42913	0.64044
624.589	-0.00284	-0.00981	-0.00461	0.04108	0.18037	0.30957	0.43004	0.6406
625.161	-0.00271	-0.00982	-0.00446	0.04126	0.18147	0.31099	0.43119	0.64106
625.733	-0.00263	-0.00976	-0.00432	0.04144	0.18253	0.31249	0.43235	0.64171
626.304	-0.00255	-0.00971	-0.00427	0.04156	0.18355	0.31392	0.4336	0.6425
626.875	-0.00251	-0.00967	-0.0043	0.04168	0.18456	0.31539	0.43491	0.64323
627.447	-0.00247	-0.00973	-0.00433	0.0417	0.1855	0.31693	0.43642	0.64419
628.018	-0.00246	-0.00971	-0.00438	0.04174	0.18645	0.31842	0.43807	0.64525
628.589	-0.00245	-0.00971	-0.00441	0.0417	0.18734	0.32003	0.43974	0.64653
629.161	-0.00249	-0.0097	-0.00444	0.04164	0.18828	0.32172	0.44155	0.64816
629.732	-0.00253	-0.0098	-0.00451	0.04165	0.18921	0.32335	0.4435	0.64972
630.303	-0.0025	-0.0098	-0.0046	0.04161	0.19014	0.32509	0.44555	0.65172
630.874	-0.00252	-0.00989	-0.00471	0.04163	0.19105	0.32691	0.44779	0.65381
631.445	-0.0025	-0.00988	-0.00474	0.04156	0.192	0.32885	0.45023	0.65615
632.016	-0.00256	-0.00995	-0.00477	0.04136	0.19278	0.33068	0.45281	0.65871
632.587	-0.0026	-0.00998	-0.00475	0.04125	0.19367	0.33271	0.45554	0.6617
633.158	-0.00259	-0.01	-0.00474	0.04118	0.19461	0.33481	0.45844	0.66494
633.729	-0.00258	-0.01008	-0.0048	0.04109	0.19545	0.33685	0.46147	0.66819
634.3	-0.00247	-0.01001	-0.0048	0.04098	0.19645	0.33908	0.4647	0.67184
634.871	-0.0024	-0.01003	-0.00479	0.04091	0.1973	0.34123	0.46809	0.67557
635.442	-0.00239	-0.00989	-0.00473	0.04084	0.19826	0.34338	0.47157	0.67949
636.012	-0.00233	-0.00988	-0.00474	0.04076	0.19912	0.34558	0.4752	0.68366
636.583	-0.00232	-0.00984	-0.00479	0.04063	0.19993	0.34784	0.47896	0.68789
637.154	-0.00229	-0.00976	-0.0048	0.04048	0.20071	0.35002	0.48285	0.69222
637.724	-0.0023	-0.00974	-0.00487	0.04031	0.20142	0.35222	0.48669	0.69677
638.295	-0.00235	-0.00972	-0.00492	0.04013	0.20217	0.35454	0.49073	0.70159
638.865	-0.0023	-0.00966	-0.0049	0.03995	0.20291	0.35689	0.49495	0.70657
639.436	-0.00236	-0.00963	-0.00484	0.0398	0.20363	0.35923	0.4992	0.71172
640.006	-0.00235	-0.00964	-0.00478	0.03972	0.20435	0.36166	0.50344	0.71719
640.577	-0.00235	-0.00964	-0.00475	0.03964	0.20511	0.36399	0.50797	0.72264
641.147	-0.00239	-0.00965	-0.00477	0.03951	0.20578	0.36639	0.51258	0.72825
641.717	-0.00233	-0.00957	-0.00466	0.03934	0.20649	0.36889	0.51731	0.73432
642.288	-0.00236	-0.00951	-0.00458	0.0392	0.20708	0.37133	0.52221	0.74045
642.858	-0.00237	-0.00945	-0.00462	0.03897	0.20762	0.37377	0.52712	0.74676
643.428	-0.00238	-0.00945	-0.00462	0.03878	0.20807	0.37614	0.53201	0.75296
643.998	-0.0024	-0.00937	-0.00461	0.03875	0.20877	0.37846	0.53704	0.75944
644.568	-0.00234	-0.00932	-0.00466	0.03859	0.20928	0.38075	0.54201	0.76597
645.138	-0.00242	-0.00931	-0.0048	0.03834	0.20968	0.38298	0.54696	0.77239
645.708	-0.00248	-0.00938	-0.0048	0.03812	0.20991	0.38509	0.55208	0.77905
646.278	-0.00248	-0.00951	-0.00485	0.0378	0.21004	0.38717	0.55685	0.78552
646.848	-0.00244	-0.00939	-0.00475	0.03767	0.21047	0.3893	0.56185	0.79217
647.418	-0.00234	-0.00939	-0.00475	0.03747	0.21061	0.39122	0.5668	0.79878
647.988	-0.00231	-0.00933	-0.00471	0.03721	0.21065	0.39313	0.57162	0.80522
648.558	-0.00233	-0.00934	-0.00473	0.03697	0.2105	0.39483	0.57612	0.81165
649.128	-0.00245	-0.00948	-0.00483	0.03662	0.21029	0.39635	0.58054	0.81799
649.697	-0.00241	-0.00951	-0.00479	0.0363	0.21019	0.39793	0.58498	0.82423
650.267	-0.00238	-0.00954	-0.00485	0.03588	0.20995	0.39924	0.58927	0.8303
650.837	-0.00246	-0.00958	-0.00497	0.03549	0.20956	0.40035	0.59335	0.83615
651.406	-0.00237	-0.00958	-0.00503	0.03522	0.2092	0.40141	0.59717	0.84177
651.976	-0.00243	-0.00962	-0.00519	0.03473	0.20863	0.40244	0.60094	0.84714
652.545	-0.00237	-0.00963	-0.00528	0.03431	0.20811	0.4033	0.6044	0.85267
653.115	-0.0023	-0.00958	-0.00527	0.03399	0.20754	0.40408	0.60791	0.85806
653.684	-0.00226	-0.00956	-0.00533	0.03364	0.20692	0.40463	0.61131	0.86319
654.254	-0.00216	-0.00952	-0.0053	0.03329	0.20628	0.40512	0.61449	0.86812
654.823	-0.00209	-0.00946	-0.00528	0.03295	0.20557	0.40556	0.61768	0.87312
655.392	-0.00204	-0.00939	-0.0053	0.03257	0.20483	0.40589	0.6207	0.87808
655.961	-0.00193	-0.00935	-0.00527	0.03211	0.20392	0.40612	0.62341	0.8826
656.531	-0.0019	-0.0093	-0.00527	0.03177	0.20297	0.40621	0.62612	0.88707
657.1	-0.00185	-0.00928	-0.0053	0.03133	0.20195	0.40611	0.62847	0.89138
657.669	-0.00185	-0.00918	-0.00531	0.03092	0.20108	0.40594	0.63075	0.89538
658.238	-0.00188	-0.00909	-0.0054	0.03054	0.19996	0.40565	0.633	0.89932
658.807	-0.00194	-0.00912	-0.00551	0.03001	0.19859	0.40509	0.6349	0.90283
659.376	-0.00204	-0.00918	-0.00564	0.02949	0.19722	0.40444	0.63655	0.90611
659.945	-0.002	-0.00917	-0.0057	0.02905	0.19592	0.40363	0.63798	0.90937
660.514	-0.00205	-0.00919	-0.00574	0.02858	0.19457	0.40277	0.63913	0.91201
661.083	-0.00196	-0.00905	-0.0057	0.02823	0.19319	0.40172	0.63996	0.91458
661.651	-0.002	-0.00898	-0.00576	0.02782	0.19154	0.40034	0.64036	0.91665
662.22	-0.00197	-0.009	-0.00574	0.02746	0.18984	0.39873	0.64022	0.91812
662.789	-0.00202	-0.0091	-0.00585	0.02698	0.18806	0.39697	0.63979	0.91908
663.358	-0.00211	-0.00913	-0.00589	0.02646	0.18614	0.39488	0.63895	0.9194
663.926	-0.00204	-0.0091	-0.00584	0.02611	0.18417	0.39253	0.63762	0.91911
664.495	-0.00206	-0.00904	-0.00578	0.02569	0.18213	0.38998	0.6358	0.91814
665.063	-0.00212	-0.00904	-0.00587	0.02514	0.17999	0.38709	0.63327	0.91619
665.632	-0.00212	-0.00904	-0.00594	0.02467	0.17765	0.38392	0.63008	0.91358
666.2	-0.00215	-0.00902	-0.00601	0.02426	0.17528	0.38051	0.62653	0.9104
666.769	-0.00222	-0.00908	-0.0061	0.02375	0.17283	0.37682	0.62228	0.90614
667.337	-0.00223	-0.00904	-0.00607	0.02332	0.17026	0.37289	0.61729	0.9008
667.905	-0.00226	-0.00904	-0.00627	0.0228	0.16753	0.36863	0.61179	0.89485
668.474	-0.00228	-0.00904	-0.00628	0.02227	0.16481	0.36408	0.60563	0.88798
669.042	-0.00224	-0.00906	-0.00632	0.02186	0.16204	0.35936	0.59879	0.88008
669.61	-0.00219	-0.00903	-0.00629	0.02149	0.15911	0.3542	0.5912	0.87141
670.178	-0.00218	-0.00901	-0.00634	0.02108	0.15625	0.3488	0.58293	0.86159
670.746	-0.00205	-0.00895	-0.00633	0.02066	0.15333	0.34325	0.57423	0.85098
671.314	-0.0021	-0.00903	-0.00642	0.02015	0.15017	0.33733	0.56485	0.83934
671.882	-0.00213	-0.00908	-0.00646	0.0197	0.14703	0.33116	0.55487	0.82686
672.45	-0.00214	-0.0091	-0.00659	0.01919	0.1438	0.32477	0.54433	0.81366
673.018	-0.00215	-0.00914	-0.00666	0.01866	0.14056	0.31814	0.53326	0.79944
673.586	-0.00217	-0.00925	-0.0067	0.01816	0.13731	0.31138	0.52188	0.78467
674.154	-0.00221	-0.0093	-0.00677	0.0177	0.13407	0.30454	0.51005	0.76937
674.722	-0.00219	-0.00924	-0.00674	0.01728	0.13078	0.29757	0.49781	0.75355
675.29	-0.00215	-0.00918	-0.00681	0.01687	0.12751	0.29047	0.48544	0.73736
675.857	-0.00226	-0.0092	-0.00683	0.01645	0.12425	0.2833	0.47269	0.72082
676.425	-0.00232	-0.00929	-0.00698	0.01594	0.12094	0.27603	0.45988	0.70396
676.993	-0.00232	-0.00933	-0.00705	0.01555	0.11771	0.26878	0.44699	0.68699
677.56	-0.00239	-0.00942	-0.00721	0.01508	0.1145	0.26159	0.43398	0.66996
678.128	-0.00237	-0.00944	-0.00727	0.01464	0.11133	0.25439	0.42085	0.65276
678.695	-0.00239	-0.00952	-0.0074	0.01419	0.10818	0.24722	0.40768	0.63558
679.263	-0.00242	-0.00963	-0.00747	0.01373	0.10514	0.24008	0.39461	0.6185
679.83	-0.00245	-0.00968	-0.00748	0.01338	0.10213	0.23292	0.38158	0.60137
680.397	-0.0025	-0.00974	-0.00758	0.01306	0.09907	0.22582	0.36856	0.58416
680.965	-0.00255	-0.00974	-0.00763	0.0127	0.09607	0.21882	0.3557	0.56727
681.532	-0.00253	-0.00975	-0.0077	0.0123	0.09313	0.21194	0.34307	0.5504
682.099	-0.00267	-0.00978	-0.00777	0.01189	0.09013	0.20508	0.33047	0.53371
682.666	-0.0028	-0.00982	-0.00784	0.01151	0.08724	0.19825	0.31804	0.51732
683.233	-0.00278	-0.00979	-0.00785	0.01123	0.08453	0.19171	0.30581	0.50137
683.801	-0.0028	-0.0098	-0.00798	0.01087	0.08179	0.18528	0.29387	0.48566
684.368	-0.00283	-0.00976	-0.00793	0.01062	0.07919	0.17898	0.28224	0.47031
684.935	-0.00285	-0.00972	-0.00799	0.01034	0.07666	0.17285	0.27098	0.45548
685.502	-0.00281	-0.00968	-0.00805	0.01001	0.07409	0.16686	0.25989	0.44087
686.068	-0.00281	-0.00962	-0.0081	0.00968	0.07154	0.16094	0.2492	0.42676
686.635	-0.00281	-0.00964	-0.0082	0.00932	0.06912	0.15514	0.23877	0.41308
687.202	-0.0028	-0.00959	-0.00815	0.00904	0.06682	0.14961	0.2287	0.39988
687.769	-0.00273	-0.00956	-0.0082	0.00881	0.06457	0.14419	0.21897	0.38716
688.336	-0.00275	-0.00949	-0.0082	0.00858	0.0624	0.13898	0.20957	0.37501
688.902	-0.00274	-0.0094	-0.0081	0.00835	0.06031	0.13396	0.20059	0.36331
689.469	-0.00277	-0.00934	-0.00804	0.00812	0.0583	0.12914	0.19205	0.35218
690.036	-0.00281	-0.00933	-0.008	0.00789	0.05639	0.12453	0.18397	0.34163
690.602	-0.0028	-0.0092	-0.00791	0.0078	0.05452	0.12012	0.17631	0.33166
691.169	-0.00278	-0.00904	-0.00787	0.00766	0.05269	0.11595	0.16903	0.32202
691.735	-0.00279	-0.00901	-0.00781	0.00751	0.05094	0.11194	0.162	0.31293
692.302	-0.00285	-0.009	-0.00778	0.00728	0.04925	0.10794	0.15543	0.30432
692.868	-0.00291	-0.00901	-0.00787	0.00702	0.04755	0.1042	0.14902	0.29611
693.434	-0.00294	-0.009	-0.00787	0.00673	0.04595	0.10062	0.14291	0.28846
694.001	-0.00288	-0.00905	-0.00788	0.00651	0.0444	0.09717	0.13714	0.28119
694.567	-0.0029	-0.00907	-0.00793	0.00632	0.04287	0.09386	0.13163	0.27428
695.133	-0.00294	-0.00912	-0.00797	0.00608	0.0414	0.09069	0.12647	0.26771
695.699	-0.00293	-0.00908	-0.00795	0.00587	0.04002	0.08762	0.12163	0.26162
696.265	-0.00291	-0.00914	-0.008	0.00565	0.03863	0.08464	0.11694	0.25583
696.831	-0.00291	-0.00916	-0.00799	0.00546	0.03729	0.08186	0.11255	0.25028
697.397	-0.00297	-0.0092	-0.00803	0.0053	0.03603	0.07913	0.1083	0.24505
697.963	-0.00304	-0.00922	-0.0081	0.00515	0.03481	0.07658	0.10426	0.24006
698.529	-0.00301	-0.00918	-0.00806	0.00504	0.03364	0.07415	0.10053	0.23543
699.095	-0.00306	-0.00926	-0.00821	0.00483	0.03243	0.07172	0.09677	0.23094
699.661	-0.00307	-0.00926	-0.0082	0.00461	0.0313	0.06941	0.09335	0.22672
700.227	-0.00303	-0.00929	-0.00828	0.00446	0.03017	0.06724	0.09006	0.22278
700.792	-0.00304	-0.0093	-0.0084	0.00423	0.02906	0.06506	0.08684	0.21899
701.358	-0.00304	-0.0093	-0.00845	0.00411	0.02799	0.06305	0.08388	0.21548
701.924	-0.00304	-0.00932	-0.0085	0.00389	0.02696	0.06105	0.08102	0.21208
702.489	-0.00304	-0.00941	-0.0086	0.00366	0.02587	0.05901	0.0782	0.20887
703.055	-0.00304	-0.00941	-0.00868	0.00349	0.02493	0.05706	0.0756	0.20599
703.62	-0.00297	-0.00936	-0.00876	0.00336	0.02402	0.05525	0.07312	0.20326
704.186	-0.00287	-0.00925	-0.00872	0.00321	0.02314	0.05359	0.07073	0.20062
704.751	-0.00274	-0.00923	-0.00867	0.00309	0.02231	0.05192	0.06849	0.19808
705.317	-0.00269	-0.00927	-0.00876	0.00292	0.02146	0.05025	0.06626	0.19561
705.882	-0.00267	-0.00924	-0.00875	0.00276	0.02064	0.04866	0.06415	0.19327
706.447	-0.00261	-0.00926	-0.00881	0.00262	0.0199	0.04717	0.0622	0.19112
707.013	-0.00261	-0.0092	-0.00876	0.00249	0.01919	0.04562	0.06031	0.18909
707.578	-0.0026	-0.00922	-0.00881	0.00242	0.01843	0.04421	0.05843	0.18706
708.143	-0.00257	-0.00916	-0.00879	0.00227	0.01772	0.04284	0.05667	0.18523
708.708	-0.00259	-0.00908	-0.00881	0.0022	0.01696	0.04152	0.05499	0.18353
709.273	-0.00252	-0.00901	-0.00876	0.00208	0.01631	0.04025	0.05346	0.18198
709.838	-0.00239	-0.0089	-0.00867	0.00205	0.01571	0.03904	0.05198	0.18054
710.403	-0.00237	-0.00887	-0.00863	0.00198	0.0151	0.03781	0.05048	0.17909
710.968	-0.00231	-0.00883	-0.00854	0.00193	0.01449	0.03664	0.04915	0.17782
711.533	-0.00231	-0.00881	-0.00858	0.00182	0.01385	0.03553	0.04776	0.17648
712.098	-0.00231	-0.00879	-0.00854	0.00177	0.01325	0.03434	0.04649	0.17524
712.663	-0.0023	-0.00876	-0.00847	0.00177	0.01275	0.03333	0.04538	0.17415
713.227	-0.00231	-0.00879	-0.0085	0.00165	0.01215	0.03225	0.04416	0.17312
713.792	-0.00229	-0.00871	-0.00851	0.00163	0.01164	0.03123	0.04309	0.17224
714.357	-0.00225	-0.00869	-0.00851	0.00158	0.01117	0.03036	0.0421	0.17127
714.921	-0.00224	-0.00879	-0.00851	0.00149	0.01059	0.02944	0.04105	0.17028
715.486	-0.00222	-0.00879	-0.00845	0.00143	0.01013	0.02855	0.04008	0.1694
716.05	-0.00216	-0.00877	-0.00839	0.0014	0.00975	0.02776	0.03913	0.16865
716.615	-0.00222	-0.00875	-0.00833	0.00133	0.00921	0.0268	0.03823	0.16791
717.179	-0.00224	-0.0087	-0.00829	0.00142	0.00876	0.02594	0.0374	0.1672
717.744	-0.0022	-0.00862	-0.00825	0.0014	0.00838	0.02516	0.03664	0.16665
718.308	-0.00214	-0.00856	-0.00817	0.00139	0.00791	0.02441	0.03582	0.16603
718.872	-0.00201	-0.00852	-0.00815	0.00136	0.00745	0.02374	0.03497	0.16544
719.437	-0.00192	-0.00836	-0.00801	0.00136	0.00712	0.02307	0.03426	0.16491
720.001	-0.00182	-0.00832	-0.00799	0.00138	0.00675	0.02244	0.03359	0.1643
720.565	-0.00175	-0.00829	-0.00801	0.0013	0.0063	0.02166	0.03284	0.16378
721.129	-0.00171	-0.00828	-0.00798	0.00131	0.00588	0.02097	0.03219	0.1632
721.693	-0.00173	-0.00835	-0.0081	0.00126	0.00549	0.02017	0.03143	0.16262
722.257	-0.00171	-0.00828	-0.00812	0.00123	0.00513	0.01954	0.03074	0.1621
722.821	-0.00156	-0.0082	-0.00807	0.00134	0.00487	0.01902	0.03015	0.16164
723.385	-0.00138	-0.00807	-0.00793	0.00143	0.00474	0.01851	0.02969	0.16126
723.949	-0.00126	-0.00795	-0.00784	0.0015	0.00449	0.01806	0.02922	0.16091
724.513	-0.00114	-0.00784	-0.00774	0.00152	0.00415	0.01744	0.0286	0.16043
725.076	-9.17153E-4	-0.00768	-0.00751	0.00168	0.00403	0.01698	0.02827	0.16007
725.64	-8.33754E-4	-0.00752	-0.00735	0.00178	0.00389	0.01662	0.02782	0.15967
726.204	-6.50614E-4	-0.00735	-0.00716	0.00186	0.00374	0.01624	0.0275	0.15944
726.767	-5.44314E-4	-0.00716	-0.00698	0.002	0.00364	0.01581	0.02707	0.15917
727.331	-4.41597E-4	-0.00708	-0.00683	0.00209	0.00343	0.01545	0.02669	0.15893
727.895	-3.73381E-4	-0.00706	-0.00677	0.00216	0.00319	0.015	0.02624	0.15854
728.458	-2.79713E-4	-0.00699	-0.00669	0.00221	0.00314	0.01465	0.0259	0.15823
729.022	-1.80729E-4	-0.00686	-0.00654	0.0023	0.00301	0.01438	0.02557	0.15792
729.585	-1.0445E-4	-0.00676	-0.0064	0.0024	0.00285	0.01408	0.02521	0.15753
730.148	9.03203E-6	-0.00659	-0.00627	0.00254	0.00281	0.01375	0.0249	0.15724
730.712	9.6806E-5	-0.00643	-0.0061	0.00272	0.00272	0.01341	0.02463	0.1569
731.275	2.68293E-4	-0.00635	-0.00591	0.00296	0.00256	0.01307	0.02433	0.15672
731.838	3.06113E-4	-0.00626	-0.0058	0.00305	0.00251	0.0127	0.02403	0.15644
732.401	4.90966E-4	-0.00612	-0.00555	0.0033	0.00268	0.01245	0.02377	0.15615
732.965	5.51816E-4	-0.00595	-0.0054	0.00345	0.00262	0.01218	0.0234	0.15595
733.528	6.97115E-4	-0.00582	-0.0051	0.00362	0.00256	0.01203	0.02331	0.15581
734.091	8.04007E-4	-0.00563	-0.00487	0.00383	0.00258	0.01174	0.0231	0.15552
734.654	7.81345E-4	-0.00556	-0.00476	0.00385	0.00252	0.01139	0.0229	0.15525
735.217	8.61419E-4	-0.00547	-0.00467	0.00397	0.00241	0.01111	0.02252	0.1549
735.779	9.5029E-4	-0.00543	-0.00468	0.00398	0.0023	0.01081	0.02221	0.15457
736.342	0.00103	-0.00541	-0.00467	0.00403	0.00219	0.01057	0.02193	0.15418
736.905	0.00114	-0.00537	-0.00464	0.00408	0.00203	0.01039	0.02165	0.15399
737.468	0.00121	-0.00541	-0.00465	0.00403	0.00174	0.01008	0.02128	0.15362
738.031	0.00121	-0.00533	-0.00468	0.00399	0.00153	0.00978	0.02098	0.15334
738.593	0.00121	-0.00539	-0.00474	0.00389	0.00125	0.00954	0.02069	0.15292
739.156	0.00119	-0.00534	-0.00487	0.00381	0.00112	0.00931	0.02044	0.15254
739.718	0.0012	-0.00532	-0.00485	0.00382	9.91907E-4	0.0091	0.02018	0.15231
740.281	0.00122	-0.00525	-0.00486	0.00386	8.49833E-4	0.00901	0.01994	0.15198
740.843	0.00132	-0.00524	-0.00482	0.00384	7.31006E-4	0.00887	0.01976	0.15178
741.406	0.00137	-0.00518	-0.00481	0.0039	5.91188E-4	0.00869	0.0196	0.15158
741.968	0.00135	-0.00516	-0.00479	0.00389	5.10383E-4	0.00852	0.01942	0.1513
742.531	0.0014	-0.00515	-0.00478	0.0038	4.65801E-4	0.00844	0.01927	0.15106
743.093	0.00142	-0.00512	-0.00481	0.00367	3.99391E-4	0.00834	0.01918	0.15081
743.655	0.00143	-0.00515	-0.00475	0.00369	2.04793E-4	0.00824	0.01895	0.15056
744.217	0.00147	-0.00517	-0.00481	0.00365	3.96524E-5	0.00814	0.01877	0.15033
744.78	0.00157	-0.0051	-0.00473	0.00366	5.66338E-5	0.0081	0.0186	0.15009
745.342	0.00161	-0.00499	-0.00472	0.00367	1.21711E-4	0.00797	0.01835	0.14986
745.904	0.00176	-0.00508	-0.00468	0.0036	5.2269E-5	0.00787	0.01817	0.14965
746.466	0.00186	-0.00497	-0.00458	0.0037	7.36931E-5	0.00786	0.01813	0.14958
747.028	0.00187	-0.00498	-0.00457	0.00369	-9.56242E-5	0.00762	0.01798	0.14937
747.59	0.00192	-0.00488	-0.00442	0.00377	-1.19143E-4	0.0076	0.01795	0.1493
748.151	0.00193	-0.00487	-0.00435	0.00377	-1.36292E-4	0.00756	0.01782	0.14912
748.713	0.00202	-0.00462	-0.00421	0.00387	-7.07917E-5	0.0074	0.01777	0.14892
749.275	0.00207	-0.00448	-0.0041	0.00396	-3.64966E-5	0.00735	0.01765	0.14864
749.837	0.00221	-0.00436	-0.00393	0.00411	7.65659E-5	0.00731	0.01754	0.14844
750.398	0.00234	-0.00431	-0.00378	0.00423	1.22835E-4	0.00717	0.01742	0.14821
750.96	0.00242	-0.00428	-0.00362	0.0043	-1.00002E-5	0.00699	0.01737	0.14801
751.522	0.00253	-0.00415	-0.00364	0.00432	-8.39662E-5	0.00675	0.01724	0.14767
752.083	0.00264	-0.00414	-0.00354	0.00433	-1.84029E-4	0.00645	0.01703	0.1474
752.645	0.00269	-0.00414	-0.00358	0.00432	-2.99652E-4	0.00612	0.0168	0.14699
753.206	0.00279	-0.00413	-0.0036	0.00431	-3.50619E-4	0.00593	0.01663	0.14675
753.768	0.00294	-0.00405	-0.0035	0.00436	-3.38182E-4	0.0058	0.01658	0.14663
754.329	0.0029	-0.00413	-0.00361	0.00425	-6.05405E-4	0.00551	0.01627	0.14624
754.89	0.0028	-0.00415	-0.00367	0.0042	-7.37465E-4	0.0052	0.01603	0.14614
755.452	0.0028	-0.00417	-0.00377	0.00403	-8.87612E-4	0.00506	0.01585	0.14592
756.013	0.00268	-0.00414	-0.0038	0.00401	-0.00101	0.00488	0.01575	0.14587
756.574	0.00267	-0.00426	-0.00392	0.00393	-0.00126	0.00457	0.01557	0.1456
757.135	0.00264	-0.00428	-0.00391	0.0039	-0.00147	0.00441	0.01545	0.14546
757.696	0.00249	-0.00439	-0.00407	0.00379	-0.00177	0.00425	0.01514	0.14507
758.257	0.00248	-0.00436	-0.00413	0.0037	-0.00193	0.00408	0.01488	0.1448
758.818	0.00233	-0.00447	-0.00423	0.00358	-0.00206	0.00398	0.01459	0.14448
759.379	0.00229	-0.00445	-0.00425	0.0035	-0.00211	0.00392	0.01447	0.14423
759.94	0.00225	-0.0045	-0.00429	0.00355	-0.00211	0.00381	0.01422	0.14404
760.501	0.00215	-0.00467	-0.00436	0.00343	-0.00222	0.00375	0.01393	0.1437
761.061	0.00213	-0.00479	-0.00435	0.00341	-0.00221	0.00358	0.01368	0.14355
761.622	0.00197	-0.00499	-0.00452	0.0033	-0.00252	0.00338	0.01341	0.14329
762.183	0.00189	-0.00491	-0.00456	0.00326	-0.00252	0.00329	0.01337	0.14317
762.744	0.00197	-0.00483	-0.0045	0.00329	-0.00246	0.00329	0.01333	0.14306
763.304	0.00188	-0.00488	-0.00447	0.00337	-0.00246	0.00326	0.0133	0.14299
763.865	0.00183	-0.00491	-0.00453	0.00336	-0.00253	0.00332	0.01332	0.14291
764.425	0.00183	-0.0048	-0.00445	0.00335	-0.00248	0.00333	0.0133	0.14295
764.986	0.00185	-0.00493	-0.00453	0.00331	-0.00253	0.00325	0.01311	0.14268
765.546	0.00185	-0.00486	-0.00444	0.00341	-0.00262	0.00321	0.01306	0.14253
766.106	0.00189	-0.00487	-0.00436	0.00348	-0.00262	0.00309	0.01291	0.1423
766.667	0.00192	-0.00484	-0.00431	0.00344	-0.00261	0.00298	0.01279	0.14182
767.227	0.00189	-0.00484	-0.00425	0.00348	-0.00264	0.00282	0.01257	0.14153
767.787	0.00191	-0.0048	-0.00422	0.0035	-0.00248	0.00285	0.01252	0.14115
768.347	0.00189	-0.00477	-0.00418	0.00349	-0.00245	0.00278	0.01245	0.14086
768.907	0.00188	-0.00468	-0.00406	0.00355	-0.00242	0.00286	0.01248	0.14065
769.467	0.00187	-0.00468	-0.00402	0.00354	-0.00241	0.00278	0.01252	0.14047
770.028	0.00181	-0.00472	-0.0041	0.00343	-0.00258	0.0027	0.01253	0.14021
770.587	0.00188	-0.00476	-0.00407	0.00342	-0.00256	0.00268	0.01249	0.14005
771.147	0.00191	-0.00497	-0.00415	0.00334	-0.00273	0.0025	0.01234	0.13989
771.707	0.00183	-0.0049	-0.00414	0.00325	-0.00284	0.00237	0.01232	0.13968
772.267	0.00182	-0.00495	-0.00432	0.00322	-0.00306	0.00229	0.01225	0.13948
772.827	0.00178	-0.00495	-0.00439	0.00324	-0.00305	0.00213	0.01218	0.13922
773.387	0.00179	-0.00494	-0.00446	0.0032	-0.00303	0.00202	0.01212	0.13893
773.946	0.00182	-0.00497	-0.00452	0.00321	-0.00307	0.00183	0.0119	0.13869
774.506	0.00166	-0.00512	-0.00463	0.00315	-0.00326	0.00159	0.01161	0.13837
775.066	0.00152	-0.00515	-0.00466	0.00311	-0.00332	0.00141	0.01142	0.13803
775.625	0.00158	-0.00521	-0.00462	0.00312	-0.00328	0.00122	0.01125	0.13777
776.185	0.00142	-0.00541	-0.0047	0.00304	-0.00336	0.00108	0.01113	0.13732
776.744	0.00129	-0.00546	-0.00477	0.00286	-0.00352	9.62055E-4	0.01105	0.13705
777.303	0.00117	-0.00555	-0.00499	0.00274	-0.00358	8.74275E-4	0.01088	0.13677
777.863	0.00111	-0.00559	-0.00507	0.00269	-0.00363	8.7411E-4	0.01078	0.13662
778.422	9.99699E-4	-0.00557	-0.00517	0.0028	-0.00376	8.69719E-4	0.01073	0.13644
778.981	0.001	-0.00571	-0.00527	0.00287	-0.00388	7.84525E-4	0.01066	0.13616
779.54	0.00103	-0.00567	-0.00518	0.00288	-0.00402	7.28968E-4	0.01068	0.13608
780.1	9.84311E-4	-0.00573	-0.00526	0.00292	-0.004	6.67091E-4	0.01065	0.13593
780.659	9.51864E-4	-0.00597	-0.0056	0.00272	-0.00422	4.35877E-4	0.01056	0.13562
781.218	9.08903E-4	-0.00603	-0.00564	0.00273	-0.00416	2.63624E-4	0.01041	0.13547
781.777	9.70249E-4	-0.00596	-0.00559	0.00287	-0.00411	2.81046E-4	0.01042	0.13529
782.336	8.39009E-4	-0.00597	-0.00551	0.00303	-0.00404	1.05744E-4	0.01033	0.13512
782.895	8.58561E-4	-0.00601	-0.00551	0.00307	-0.00398	4.58249E-5	0.01033	0.13494
783.453	7.83455E-4	-0.00618	-0.00554	0.00301	-0.00399	-5.93198E-5	0.01012	0.13467
784.012	6.65231E-4	-0.00633	-0.0055	0.003	-0.00394	-1.03361E-4	0.01007	0.13453
784.571	6.22329E-4	-0.0064	-0.00547	0.00301	-0.00408	-1.52893E-4	0.01004	0.13432
785.13	6.76539E-4	-0.00645	-0.00536	0.00299	-0.0041	-9.31509E-5	0.01009	0.13425
785.688	6.35121E-4	-0.00644	-0.0054	0.00289	-0.00423	-1.942E-5	0.01002	0.13407
786.247	7.01465E-4	-0.00662	-0.00551	0.00274	-0.00442	-7.22544E-5	0.0099	0.13376
786.806	8.67799E-4	-0.00668	-0.00555	0.00267	-0.0045	-3.38935E-5	0.00999	0.13354
787.364	8.52008E-4	-0.00669	-0.00566	0.00254	-0.00466	6.97713E-5	0.00998	0.13346
787.923	8.93202E-4	-0.00655	-0.00557	0.0026	-0.00472	1.78509E-4	0.01002	0.1335
788.481	8.80622E-4	-0.00644	-0.00538	0.00281	-0.00467	2.0598E-4	0.00997	0.1336
789.039	8.93348E-4	-0.00637	-0.00535	0.00289	-0.00477	6.62784E-5	0.01006	0.13341
789.598	9.37776E-4	-0.00628	-0.00527	0.003	-0.00471	1.60093E-4	0.01017	0.13339
790.156	0.0011	-0.00627	-0.00519	0.00303	-0.00461	2.69959E-4	0.01033	0.13347
790.714	0.00114	-0.00622	-0.0051	0.00299	-0.00462	1.67177E-4	0.01026	0.13342
791.272	0.00108	-0.00636	-0.00534	0.00275	-0.00479	1.43591E-6	0.01016	0.13313
791.831	0.00103	-0.00642	-0.00532	0.00268	-0.00485	3.46123E-5	0.01004	0.13297
792.389	0.00105	-0.00621	-0.00513	0.0027	-0.00477	1.43582E-4	0.01011	0.13293
792.947	0.0011	-0.0061	-0.00498	0.00278	-0.00483	3.60871E-5	0.01009	0.13285
793.505	0.00109	-0.00617	-0.00505	0.00271	-0.00503	-7.25224E-5	0.00993	0.13279
794.063	0.00113	-0.00608	-0.00507	0.00252	-0.00519	-7.75137E-5	0.00994	0.13268
794.62	0.00114	-0.00596	-0.00507	0.00249	-0.00525	3.0382E-5	0.01006	0.1326
795.178	0.00126	-0.00581	-0.00508	0.00244	-0.00526	-2.72044E-5	0.0102	0.13252
795.736	0.00137	-0.00561	-0.00508	0.00237	-0.00535	-3.1846E-5	0.01034	0.13247
796.294	0.00141	-0.00564	-0.00524	0.00223	-0.00546	1.37089E-5	0.01031	0.13233
796.852	0.00138	-0.00564	-0.00535	0.00219	-0.00557	-9.20606E-5	0.01012	0.13211
797.409	0.00127	-0.00568	-0.0054	0.00216	-0.00557	-3.05383E-4	0.01011	0.13186
797.967	0.00129	-0.00546	-0.00532	0.0023	-0.00539	-2.04458E-4	0.01026	0.13198
798.524	0.00126	-0.00534	-0.00532	0.00226	-0.00545	-2.34574E-4	0.01016	0.13189
799.082	0.0011	-0.00534	-0.00528	0.00236	-0.00541	-4.39787E-4	0.01004	0.13171
799.639	0.00105	-0.0054	-0.00539	0.00238	-0.00535	-5.94236E-4	0.01001	0.13144
800.197	9.95691E-4	-0.00546	-0.00553	0.0023	-0.00531	-6.46753E-4	0.00992	0.13118
800.754	8.70407E-4	-0.00556	-0.00557	0.00218	-0.00534	-6.77346E-4	0.00984	0.13104
801.311	7.18284E-4	-0.00581	-0.00561	0.00204	-0.00544	-9.31182E-4	0.0096	0.13073
801.869	6.33539E-4	-0.00574	-0.00559	0.00198	-0.00545	-9.77331E-4	0.00942	0.13033
802.426	6.0164E-4	-0.00572	-0.00552	0.00208	-0.00535	-9.64763E-4	0.00947	0.13023
802.983	5.15774E-4	-0.00568	-0.00548	0.00228	-0.00533	-8.87558E-4	0.00937	0.13006
803.54	5.94703E-4	-0.00569	-0.00538	0.00238	-0.00525	-9.15893E-4	0.00931	0.12996
804.097	5.41297E-4	-0.00584	-0.00549	0.00248	-0.00523	-0.00103	0.00917	0.12967
804.654	4.11856E-4	-0.00594	-0.0056	0.00243	-0.00529	-9.31202E-4	0.00908	0.12946
805.211	3.27221E-4	-0.00603	-0.00565	0.00254	-0.00515	-8.78655E-4	0.00912	0.12926
805.768	2.47326E-4	-0.00623	-0.00574	0.0025	-0.00521	-9.13933E-4	0.00904	0.12897
806.325	1.61967E-4	-0.0063	-0.00577	0.00259	-0.00532	-9.80817E-4	0.00903	0.12879
806.882	8.59128E-6	-0.00645	-0.00584	0.00253	-0.00542	-0.00106	0.00898	0.12854
807.438	-3.00817E-5	-0.00645	-0.00576	0.00269	-0.00527	-0.00109	0.00901	0.12836
807.995	-7.73808E-5	-0.00634	-0.00556	0.0028	-0.00502	-0.00114	0.00911	0.12818
808.552	-5.99283E-5	-0.00633	-0.00541	0.0029	-0.0048	-0.00105	0.00938	0.12817
809.108	-4.94101E-6	-0.00631	-0.00537	0.003	-0.00471	-9.25538E-4	0.00938	0.12804
809.665	-4.68059E-5	-0.00655	-0.00549	0.00293	-0.00469	-0.00104	0.0093	0.12783
810.221	-9.6333E-5	-0.00663	-0.00548	0.00299	-0.00467	-0.00112	0.00924	0.12758
810.778	1.97398E-5	-0.00651	-0.00542	0.00308	-0.00456	-0.00109	0.00923	0.12753
811.334	1.318E-4	-0.00637	-0.0052	0.00333	-0.00457	-8.95027E-4	0.00919	0.12736
811.89	9.52545E-5	-0.00642	-0.00499	0.00335	-0.00465	-9.40496E-4	0.00906	0.12712
812.447	2.42051E-4	-0.00626	-0.00492	0.00352	-0.00448	-8.95483E-4	0.00906	0.12702
813.003	3.16396E-4	-0.00619	-0.00488	0.00367	-0.00438	-7.74231E-4	0.00925	0.12713
813.559	3.17023E-4	-0.00629	-0.00499	0.00359	-0.00452	-9.3045E-4	0.00927	0.1269
814.115	1.9964E-4	-0.00633	-0.00509	0.00341	-0.00473	-9.73952E-4	0.00921	0.12666
814.672	3.14212E-4	-0.00633	-0.00507	0.00341	-0.0048	-0.00105	0.00925	0.12646
815.228	4.09145E-4	-0.00624	-0.00505	0.00333	-0.00488	-0.00103	0.0093	0.12627
815.784	5.03908E-4	-0.00623	-0.00499	0.0033	-0.0049	-9.85043E-4	0.00932	0.12622
816.34	5.3023E-4	-0.00634	-0.00506	0.00315	-0.00491	-9.73463E-4	0.00919	0.12621
816.895	4.8575E-4	-0.00634	-0.00519	0.00297	-0.00506	-0.00116	0.00912	0.12597
817.451	5.90623E-4	-0.00621	-0.0052	0.00293	-0.00502	-0.00127	0.00896	0.12567
818.007	6.4481E-4	-0.00623	-0.00522	0.00291	-0.0049	-0.00129	0.00882	0.12551
818.563	8.31563E-4	-0.00612	-0.00513	0.00305	-0.00485	-0.00119	0.00864	0.12538
819.119	7.63049E-4	-0.00627	-0.00519	0.0029	-0.00494	-0.0012	0.00851	0.12518
819.674	7.78919E-4	-0.00625	-0.00525	0.00286	-0.00513	-0.00122	0.00826	0.12499
820.23	7.60174E-4	-0.00624	-0.00525	0.00293	-0.00516	-0.00136	0.00821	0.12492
820.785	8.18321E-4	-0.00621	-0.00518	0.00295	-0.00519	-0.0013	0.00819	0.12463
821.341	8.4079E-4	-0.00596	-0.00505	0.00299	-0.00515	-0.00119	0.00823	0.12451
821.896	8.20779E-4	-0.00604	-0.0052	0.00279	-0.00524	-0.00113	0.0082	0.12419
822.452	7.06132E-4	-0.00624	-0.00529	0.00258	-0.0054	-0.001	0.00817	0.12406
823.007	7.35816E-4	-0.00622	-0.00532	0.00256	-0.00522	-0.00103	0.00839	0.12421
823.562	9.18062E-4	-0.00612	-0.00527	0.00273	-0.00501	-7.44155E-4	0.00861	0.1243
824.118	9.69653E-4	-0.00616	-0.00525	0.00266	-0.00513	-7.26909E-4	0.00869	0.12417
824.673	0.00106	-0.00602	-0.00517	0.00275	-0.00509	-6.35451E-4	0.00879	0.12403
825.228	0.00111	-0.00591	-0.00516	0.00293	-0.00479	-4.06905E-4	0.00901	0.12403
825.783	0.0013	-0.00585	-0.00516	0.00299	-0.0045	-1.07251E-4	0.00914	0.124
826.338	0.00144	-0.00576	-0.00516	0.0031	-0.00429	6.16092E-5	0.00939	0.1242
826.893	0.00139	-0.00565	-0.00531	0.00312	-0.00435	1.59753E-4	0.00942	0.12414
827.448	0.00138	-0.00559	-0.00532	0.0032	-0.0043	1.80343E-4	0.00965	0.12408
828.003	0.00145	-0.00539	-0.00525	0.00331	-0.00416	2.85992E-4	0.00994	0.12394
828.558	0.00172	-0.00526	-0.00486	0.00362	-0.00387	5.62273E-4	0.01033	0.12407
829.113	0.00194	-0.00493	-0.00453	0.00387	-0.00363	8.6366E-4	0.01062	0.12428
829.668	0.00194	-0.0047	-0.00434	0.00408	-0.00357	9.38741E-4	0.01081	0.12417
830.222	0.00205	-0.00466	-0.00423	0.0042	-0.00351	9.70511E-4	0.01103	0.12418
830.777	0.00234	-0.00434	-0.00413	0.00446	-0.00332	0.00107	0.01133	0.12421
831.331	0.00247	-0.00425	-0.00399	0.00458	-0.00316	0.00117	0.01162	0.12406
831.886	0.0025	-0.00422	-0.00394	0.00461	-0.00315	0.00135	0.01164	0.12384
832.441	0.00257	-0.00412	-0.0038	0.00471	-0.00302	0.00135	0.01176	0.12392
832.995	0.00272	-0.00404	-0.00359	0.00488	-0.0029	0.00152	0.01187	0.12375
833.549	0.00295	-0.00383	-0.00337	0.00521	-0.00274	0.00149	0.01197	0.12383
834.104	0.00314	-0.00352	-0.00312	0.00543	-0.00254	0.00159	0.01213	0.12372
834.658	0.00334	-0.00339	-0.00303	0.00549	-0.00253	0.00177	0.01218	0.12342
835.212	0.00324	-0.00339	-0.0031	0.00532	-0.00258	0.00183	0.01217	0.12323
835.766	0.00338	-0.00321	-0.00292	0.00547	-0.00233	0.00204	0.01233	0.12334
836.321	0.00353	-0.00316	-0.00294	0.00554	-0.00233	0.00204	0.01233	0.12329
836.875	0.00358	-0.00307	-0.00275	0.00557	-0.00238	0.00203	0.01239	0.12328
837.429	0.00378	-0.0029	-0.00244	0.00578	-0.00233	0.00203	0.01246	0.12336
837.983	0.00382	-0.00289	-0.00226	0.00579	-0.00227	0.00206	0.01248	0.1231
838.537	0.00406	-0.00273	-0.00202	0.00581	-0.00218	0.00213	0.01251	0.12316
839.091	0.00423	-0.00259	-0.00189	0.00606	-0.00213	0.00221	0.01257	0.12295
839.644	0.0043	-0.00258	-0.00166	0.00607	-0.00217	0.00211	0.01251	0.12272
840.198	0.00429	-0.00256	-0.00187	0.00584	-0.00235	0.00188	0.01231	0.12245
840.752	0.00422	-0.00275	-0.00209	0.00578	-0.00259	0.00184	0.01225	0.12223
841.306	0.0044	-0.00264	-0.00194	0.00584	-0.00258	0.00191	0.01231	0.12219
841.859	0.00436	-0.00272	-0.00202	0.00574	-0.00254	0.00186	0.01224	0.12215
842.413	0.0043	-0.00284	-0.00205	0.00578	-0.00259	0.00184	0.01208	0.1221
842.966	0.0043	-0.00275	-0.00206	0.00578	-0.00267	0.00191	0.01216	0.12229
843.52	0.00432	-0.00271	-0.00203	0.00575	-0.00266	0.00197	0.01219	0.12238
844.073	0.00435	-0.00258	-0.00194	0.00579	-0.00266	0.0021	0.01216	0.12229
844.627	0.00404	-0.00265	-0.00208	0.00577	-0.00284	0.00207	0.0121	0.12231
845.18	0.00404	-0.00253	-0.00199	0.00596	-0.00268	0.00229	0.0123	0.1224
845.733	0.00389	-0.00256	-0.00213	0.00595	-0.00258	0.00216	0.0124	0.12229
846.287	0.00382	-0.00262	-0.0022	0.00584	-0.00269	0.00188	0.01232	0.1221
846.84	0.00388	-0.0026	-0.00226	0.00594	-0.00284	0.00173	0.01234	0.12195
847.393	0.00388	-0.00268	-0.00237	0.00598	-0.00279	0.00159	0.01231	0.12158
847.946	0.00386	-0.00272	-0.00225	0.00602	-0.00271	0.00154	0.01215	0.12139
848.499	0.00388	-0.00275	-0.00225	0.00605	-0.00258	0.00148	0.0121	0.12106
849.052	0.00378	-0.00279	-0.00238	0.00604	-0.00265	0.00145	0.01201	0.12067
849.605	0.00376	-0.00275	-0.00246	0.00618	-0.00257	0.00136	0.01186	0.12037
850.158	0.00364	-0.0028	-0.00241	0.00624	-0.0024	0.00132	0.01191	0.1201
850.711	0.00361	-0.00272	-0.00226	0.00621	-0.0023	0.00129	0.0118	0.1199
851.263	0.00378	-0.00255	-0.0022	0.00641	-0.00214	0.00148	0.01186	0.11996
851.816	0.00382	-0.00234	-0.00199	0.00678	-0.00187	0.00177	0.01201	0.11993
852.369	0.00401	-0.00217	-0.00173	0.00699	-0.00156	0.00184	0.01214	0.11989
852.921	0.00411	-0.00204	-0.00169	0.00721	-0.00146	0.0019	0.01223	0.11977
853.474	0.00424	-0.00176	-0.00143	0.00737	-0.0013	0.00201	0.01229	0.11948
854.026	0.00424	-0.00161	-0.00136	0.00737	-0.00124	0.00217	0.01246	0.11939
854.579	0.00449	-0.00141	-0.00117	0.00756	-9.34908E-4	0.00226	0.0125	0.11922
855.131	0.0045	-0.00125	-0.00109	0.00779	-7.9299E-4	0.00239	0.01262	0.11902
855.684	0.00458	-0.00132	-0.00103	0.00771	-7.81465E-4	0.00231	0.01281	0.11885
856.236	0.00474	-0.00126	-8.77711E-4	0.00765	-7.11719E-4	0.00225	0.01293	0.11878
856.788	0.0051	-0.00101	-5.20552E-4	0.00779	-3.87005E-4	0.00245	0.01311	0.11881
857.34	0.00524	-0.00118	-5.66778E-4	0.00775	-5.60906E-4	0.0024	0.01294	0.11872
857.893	0.00526	-0.00125	-6.23997E-4	0.00775	-5.28259E-4	0.00237	0.01297	0.11857
858.445	0.00525	-0.00118	-5.95419E-4	0.00773	-5.02794E-4	0.00224	0.013	0.11863
858.997	0.00527	-0.00115	-6.16128E-4	0.00763	-6.54879E-4	0.00244	0.0132	0.11872
859.549	0.00541	-0.00105	-5.07806E-4	0.00769	-6.01042E-4	0.00261	0.01351	0.11888
860.101	0.00557	-8.79469E-4	-4.49488E-4	0.0079	-6.39923E-4	0.00293	0.01367	0.11919
860.653	0.0057	-7.51055E-4	-2.57598E-4	0.00795	-5.91987E-4	0.00303	0.01388	0.11956
861.204	0.00577	-7.7926E-4	-1.9425E-4	0.00793	-6.71609E-4	0.00327	0.01419	0.11979
861.756	0.00598	-7.20976E-4	-2.19062E-4	0.00802	-6.17528E-4	0.00358	0.01442	0.12004
862.308	0.00591	-7.62588E-4	-4.16167E-4	0.00791	-7.98054E-4	0.00367	0.01445	0.12008
862.86	0.00598	-7.46018E-4	-4.0389E-4	0.00784	-8.10506E-4	0.00382	0.01462	0.12014
863.411	0.00592	-8.40411E-4	-4.8892E-4	0.00769	-9.83476E-4	0.00377	0.01467	0.12014
863.963	0.00574	-0.00102	-6.23018E-4	0.00734	-0.00118	0.00372	0.0146	0.12006
864.514	0.00552	-0.00118	-7.87868E-4	0.00721	-0.00122	0.00377	0.01448	0.12004
865.066	0.00562	-0.00118	-7.73489E-4	0.00722	-0.00129	0.00394	0.01459	0.12012
865.617	0.0056	-0.00131	-7.50786E-4	0.00728	-0.00128	0.00396	0.01445	0.12014
866.169	0.00556	-0.00148	-6.69538E-4	0.00724	-0.00134	0.004	0.01437	0.12012
866.72	0.00577	-0.00137	-6.26786E-4	0.00729	-0.00141	0.00407	0.01447	0.12015
867.271	0.00589	-0.0012	-4.6247E-4	0.00757	-0.00116	0.00446	0.01467	0.12027
867.822	0.00586	-0.00117	-5.01875E-4	0.00767	-0.0011	0.00439	0.01458	0.12018
868.374	0.00571	-0.00139	-6.50207E-4	0.00757	-0.00119	0.00427	0.01447	0.1199
868.925	0.00571	-0.0012	-4.59158E-4	0.00785	-9.49477E-4	0.00439	0.01482	0.11996
869.476	0.00575	-0.00108	-4.02351E-4	0.00791	-8.92435E-4	0.00458	0.01485	0.11984
870.027	0.00585	-0.00109	-2.33288E-4	0.00793	-6.97423E-4	0.0047	0.0149	0.11981
870.578	0.00572	-9.51229E-4	-1.82656E-4	0.0082	-6.03138E-4	0.00465	0.01487	0.1196
871.129	0.00557	-9.34728E-4	-2.65984E-4	0.00813	-6.72705E-4	0.00453	0.01468	0.11943
871.68	0.00559	-9.20769E-4	-1.92141E-4	0.00811	-6.406E-4	0.00446	0.01453	0.11915
872.23	0.00574	-6.76667E-4	1.84918E-5	0.00835	-3.73652E-4	0.00457	0.01456	0.11906
872.781	0.00563	-5.40882E-4	1.77348E-4	0.00848	-2.5046E-4	0.00443	0.01443	0.11884
873.332	0.0056	-3.79916E-4	4.1107E-4	0.00862	-7.67869E-5	0.00439	0.01436	0.11875
873.882	0.00586	-2.25144E-4	6.32416E-4	0.00899	2.54279E-4	0.00454	0.01447	0.11892
874.433	0.00584	-2.30982E-4	7.39068E-4	0.00906	3.39443E-4	0.0045	0.01432	0.11874
874.984	0.00587	-1.74992E-4	8.91049E-4	0.00918	4.55754E-4	0.00463	0.01432	0.11867
875.534	0.00608	1.02467E-4	0.00112	0.00942	6.71488E-4	0.00495	0.0144	0.11857
876.085	0.00624	3.47948E-4	0.00132	0.00953	8.41916E-4	0.00519	0.01445	0.11878
876.635	0.00623	4.72691E-4	0.00155	0.00972	9.89554E-4	0.00532	0.01455	0.11877
877.185	0.0062	6.47433E-4	0.00154	0.00969	9.29106E-4	0.00524	0.01462	0.11871
877.736	0.00617	7.0734E-4	0.00141	0.00975	0.00107	0.00539	0.01466	0.11866
878.286	0.00612	7.37368E-4	0.00139	0.00971	0.00108	0.00532	0.01451	0.11866
878.836	0.00625	7.31998E-4	0.0014	0.0098	9.72268E-4	0.00527	0.01429	0.11851
879.386	0.00654	9.0754E-4	0.00149	0.00986	0.00124	0.00547	0.01447	0.11859
879.936	0.00651	9.83853E-4	0.00151	0.00979	0.00104	0.00559	0.01443	0.11842
880.486	0.00679	0.00119	0.00172	0.00992	0.00117	0.00569	0.01442	0.11854
881.036	0.00695	0.00129	0.00194	0.01011	0.0013	0.00592	0.01458	0.1187
881.586	0.00703	0.00145	0.00203	0.01034	0.00136	0.00599	0.01469	0.11856
882.136	0.00726	0.0015	0.00218	0.01016	0.00155	0.00621	0.01474	0.11862
882.686	0.0075	0.00159	0.00237	0.01023	0.00169	0.0064	0.01492	0.11857
883.235	0.00741	0.00159	0.00229	0.01007	0.00168	0.00626	0.01504	0.11846
883.785	0.00741	0.00143	0.00225	0.00996	0.00157	0.00616	0.01497	0.11813
884.335	0.00764	0.00156	0.00221	0.0099	0.00165	0.00623	0.01486	0.11809
884.884	0.0077	0.00146	0.00211	0.0098	0.00151	0.00614	0.01469	0.11769
885.434	0.0077	0.00163	0.00228	0.00984	0.00155	0.00624	0.01476	0.11761
885.983	0.00771	0.00163	0.00231	0.00994	0.0017	0.00621	0.01484	0.11751
886.533	0.00786	0.00165	0.00244	0.01008	0.00182	0.00626	0.01476	0.11752
887.082	0.00791	0.00186	0.00261	0.01033	0.002	0.00619	0.01481	0.11753
887.632	0.00812	0.00193	0.00273	0.01052	0.00217	0.00599	0.01488	0.1173
888.181	0.0083	0.00192	0.00283	0.01054	0.00235	0.0062	0.0149	0.11732
888.73	0.0086	0.00197	0.00297	0.01067	0.00255	0.00621	0.01511	0.1173
889.279	0.00881	0.00223	0.00327	0.01089	0.00272	0.00637	0.0152	0.11723
889.828	0.00895	0.00213	0.00335	0.01103	0.00291	0.00634	0.01544	0.11728
890.377	0.0089	0.0022	0.00333	0.01099	0.00302	0.00641	0.01558	0.11732
890.926	0.00892	0.00221	0.00351	0.0113	0.00309	0.00654	0.01572	0.11742
891.475	0.00905	0.00225	0.00351	0.01132	0.00317	0.00668	0.01573	0.11745
892.024	0.009	0.00224	0.00357	0.01131	0.00302	0.00676	0.0158	0.11722
892.573	0.00917	0.0024	0.00368	0.01142	0.00319	0.00681	0.01592	0.1173
893.122	0.00938	0.00249	0.0037	0.01159	0.00336	0.00696	0.01598	0.11741
893.671	0.00942	0.00237	0.00375	0.01183	0.00345	0.00707	0.01608	0.11724
894.219	0.00934	0.0023	0.00364	0.01191	0.00346	0.00699	0.01587	0.11706
894.768	0.00955	0.00225	0.00371	0.01209	0.00359	0.00712	0.01601	0.11705
895.317	0.00966	0.00237	0.00372	0.0122	0.00383	0.00735	0.01627	0.11708
895.865	0.00968	0.00238	0.00383	0.0124	0.00383	0.0075	0.01658	0.11722
896.414	0.00976	0.0025	0.00399	0.01243	0.00395	0.00752	0.01674	0.11728
896.962	0.00977	0.00243	0.00393	0.0123	0.00388	0.00746	0.01675	0.11696
897.511	0.00966	0.0025	0.00381	0.01232	0.00379	0.00761	0.01669	0.11693
898.059	0.00978	0.00262	0.00372	0.01219	0.00378	0.00747	0.01684	0.11699
898.607	0.00992	0.00247	0.00363	0.01199	0.00373	0.00756	0.01696	0.11679
899.155	0.01002	0.00243	0.00335	0.01187	0.00351	0.00754	0.01721	0.11677
899.704	0.00986	0.00242	0.00324	0.01178	0.00312	0.00729	0.01729	0.11653
900.252	0.0098	0.00258	0.0033	0.01179	0.00306	0.00731	0.01738	0.11646
900.8	0.00986	0.00267	0.00339	0.01177	0.00302	0.00713	0.01751	0.1163
901.348	0.00992	0.00293	0.00364	0.01194	0.00313	0.00727	0.01756	0.11614
901.896	0.01016	0.0032	0.00385	0.01216	0.00334	0.00737	0.01769	0.11617
902.444	0.01014	0.00327	0.00377	0.01204	0.00331	0.00734	0.01772	0.1162
902.991	0.01024	0.00356	0.00392	0.01232	0.00353	0.00749	0.01815	0.11627
903.539	0.01044	0.00369	0.00396	0.01255	0.00389	0.00763	0.01827	0.11647
904.087	0.01042	0.00381	0.0041	0.01274	0.00404	0.00775	0.01859	0.11659
904.635	0.01034	0.00393	0.00436	0.01283	0.00423	0.00778	0.01868	0.11643
905.182	0.01056	0.00428	0.0045	0.013	0.00446	0.00788	0.019	0.11677
905.73	0.01078	0.00454	0.00483	0.01326	0.00464	0.00799	0.01926	0.11699
906.277	0.01081	0.00462	0.00482	0.01334	0.00461	0.00799	0.01956	0.11711
906.825	0.01065	0.00485	0.00502	0.01349	0.00455	0.00792	0.01969	0.11719
907.372	0.01077	0.00488	0.00517	0.01342	0.00476	0.00804	0.01972	0.11714
907.92	0.01089	0.00499	0.00518	0.01374	0.00491	0.00827	0.01998	0.11729
908.467	0.01112	0.00531	0.00534	0.01401	0.00511	0.00853	0.02017	0.11742
909.014	0.0114	0.00558	0.0057	0.01431	0.0054	0.00877	0.02051	0.11747
909.561	0.01151	0.0058	0.00587	0.0145	0.00559	0.00901	0.02062	0.1174
910.109	0.01148	0.00585	0.00599	0.01482	0.00573	0.00904	0.02076	0.11746
910.656	0.01152	0.006	0.00624	0.01506	0.006	0.00924	0.02082	0.11741
911.203	0.0118	0.0062	0.00643	0.01528	0.00642	0.00935	0.02094	0.11756
911.75	0.01192	0.00624	0.00654	0.01537	0.00652	0.00958	0.02106	0.11761
912.297	0.0119	0.00621	0.00643	0.01543	0.00647	0.00978	0.02117	0.11777
912.843	0.01175	0.00604	0.00634	0.01534	0.00654	0.00974	0.02122	0.11779
913.39	0.01171	0.00602	0.00637	0.01524	0.00656	0.00978	0.02139	0.1177
913.937	0.01195	0.00624	0.00655	0.0155	0.00676	0.00994	0.02145	0.11764
914.484	0.01211	0.00636	0.00687	0.01562	0.00697	0.01015	0.02158	0.11771
915.03	0.01216	0.00643	0.0071	0.01571	0.00706	0.01021	0.02167	0.11776
915.577	0.0124	0.00658	0.0072	0.01575	0.00718	0.01051	0.0218	0.11776
916.124	0.01283	0.00691	0.00759	0.01616	0.00736	0.01082	0.02199	0.1181
916.67	0.01298	0.00705	0.00772	0.01624	0.00748	0.01091	0.02197	0.11795
917.217	0.01318	0.00746	0.00807	0.01659	0.00786	0.01132	0.02242	0.11818
917.763	0.01343	0.00783	0.00839	0.01683	0.00829	0.01175	0.02233	0.11808
918.309	0.01395	0.00806	0.00874	0.01721	0.00874	0.01206	0.02263	0.11822
918.856	0.01421	0.00846	0.00904	0.01757	0.0089	0.01223	0.02289	0.11821
919.402	0.01449	0.00878	0.00937	0.01787	0.0093	0.01246	0.02317	0.11835
919.948	0.0148	0.00902	0.00977	0.01803	0.00959	0.01275	0.02348	0.11855
920.494	0.01507	0.00917	0.01001	0.01827	0.00978	0.0128	0.0238	0.11858
921.04	0.01529	0.00932	0.01028	0.01873	0.01004	0.01309	0.02423	0.11875
921.586	0.01553	0.00978	0.01074	0.01902	0.01045	0.01343	0.02459	0.11896
922.132	0.01593	0.01009	0.01131	0.01936	0.01101	0.01379	0.02501	0.11942
922.678	0.01617	0.01052	0.01161	0.01981	0.01133	0.01426	0.02529	0.11961
923.224	0.01679	0.01104	0.01213	0.02043	0.01203	0.01479	0.02574	0.1198
923.77	0.01734	0.01151	0.01276	0.02081	0.0127	0.01544	0.02616	0.12006
924.315	0.01816	0.01212	0.01302	0.02138	0.01316	0.01605	0.02657	0.12053
924.861	0.01847	0.0123	0.0134	0.02176	0.01344	0.01634	0.02683	0.12086
925.407	0.019	0.0128	0.01393	0.02225	0.0139	0.01698	0.02753	0.12163
925.952	0.01938	0.01308	0.0141	0.02259	0.01422	0.01725	0.02777	0.1218
926.498	0.0199	0.01374	0.01462	0.02298	0.01457	0.01785	0.02837	0.12206
927.043	0.02022	0.01406	0.01493	0.02328	0.0149	0.01816	0.02869	0.12224
927.589	0.02044	0.01439	0.01521	0.0236	0.01528	0.01866	0.02926	0.12266
928.134	0.02091	0.01486	0.01549	0.02391	0.0156	0.01917	0.02981	0.12297
928.679	0.02114	0.01504	0.01574	0.02416	0.01594	0.01942	0.03019	0.12326
929.225	0.0215	0.01564	0.01624	0.02454	0.01628	0.02005	0.03087	0.12395
929.77	0.02177	0.01594	0.01667	0.02504	0.01664	0.0205	0.03132	0.12446
930.315	0.02242	0.01637	0.01704	0.02547	0.01703	0.02118	0.03169	0.12496
930.86	0.02264	0.01665	0.0173	0.02579	0.0172	0.02161	0.03197	0.12518
931.405	0.02312	0.01698	0.01757	0.02634	0.01781	0.02213	0.0325	0.12572
931.95	0.02345	0.0175	0.01804	0.02671	0.01832	0.02267	0.03285	0.1263
932.495	0.02414	0.01833	0.01857	0.02716	0.019	0.02341	0.03354	0.12703
933.04	0.02476	0.01877	0.01908	0.02784	0.0194	0.02402	0.03399	0.12783
933.585	0.02527	0.01931	0.01939	0.02838	0.01986	0.02484	0.03456	0.12834
934.129	0.02585	0.01988	0.02005	0.02899	0.02067	0.02564	0.03543	0.12901
934.674	0.02634	0.02028	0.02044	0.0295	0.02103	0.02631	0.0362	0.13007
935.219	0.02667	0.02073	0.02082	0.03009	0.02146	0.02642	0.03696	0.13042
935.763	0.02729	0.02152	0.02181	0.03084	0.02213	0.0273	0.03799	0.13123
936.308	0.02827	0.02261	0.02239	0.03167	0.02296	0.02821	0.03885	0.13187
936.852	0.02863	0.02299	0.02308	0.03218	0.02345	0.02867	0.03937	0.13194
937.397	0.02941	0.02355	0.02337	0.03251	0.02386	0.02947	0.03989	0.13259
937.941	0.02992	0.02411	0.02396	0.03328	0.02437	0.03027	0.04041	0.13345
938.486	0.03079	0.025	0.02457	0.03393	0.02509	0.03114	0.041	0.13416
939.03	0.0316	0.02584	0.02526	0.03476	0.02599	0.03175	0.04173	0.13478
939.574	0.03251	0.02667	0.02624	0.03543	0.02686	0.03279	0.04225	0.13573
940.118	0.03383	0.02773	0.02722	0.03655	0.0282	0.03393	0.04348	0.13672
940.662	0.0352	0.02832	0.02803	0.03749	0.02907	0.03466	0.04409	0.13734
941.206	0.03634	0.02928	0.02881	0.03836	0.03004	0.03546	0.0449	0.13831
941.75	0.03747	0.0308	0.0303	0.03977	0.03158	0.03683	0.04703	0.13979
942.294	0.03878	0.03254	0.03201	0.04104	0.03296	0.03804	0.04858	0.14167
942.838	0.04027	0.03402	0.03323	0.04202	0.03381	0.03917	0.05025	0.14309
943.382	0.04189	0.03557	0.03458	0.04341	0.03517	0.04111	0.05204	0.1448
943.926	0.04358	0.03683	0.03623	0.04494	0.03689	0.04307	0.05382	0.14633
944.469	0.04436	0.03804	0.03721	0.04578	0.03797	0.04413	0.05511	0.14692
945.013	0.0461	0.03967	0.03867	0.04713	0.03969	0.04557	0.05677	0.14865
945.557	0.04798	0.04112	0.04029	0.04861	0.0411	0.04693	0.05833	0.15022
946.1	0.0494	0.04281	0.04182	0.05003	0.04289	0.04851	0.05975	0.15133
946.644	0.05088	0.04402	0.04321	0.05141	0.04451	0.05038	0.06092	0.15265
947.187	0.05226	0.04602	0.04535	0.05319	0.04644	0.05231	0.06274	0.15394
947.731	0.05351	0.04732	0.04713	0.05494	0.04819	0.05385	0.06415	0.15501
948.274	0.05569	0.04968	0.04959	0.05748	0.05062	0.05613	0.06652	0.15721
948.817	0.05738	0.05175	0.05182	0.05965	0.05297	0.05798	0.06871	0.15887
949.36	0.05888	0.05318	0.0536	0.06165	0.05536	0.05977	0.07068	0.16083
949.904	0.06097	0.05502	0.05555	0.06333	0.05687	0.0614	0.07275	0.16241
950.447	0.06256	0.05639	0.05741	0.06491	0.05826	0.06307	0.07417	0.16392
950.99	0.06458	0.05835	0.05917	0.06712	0.06015	0.06513	0.07633	0.16568
951.533	0.06615	0.05998	0.06092	0.06886	0.06163	0.06669	0.07799	0.16737
952.076	0.06749	0.06157	0.06246	0.07028	0.06351	0.06843	0.07993	0.16898
952.619	0.06895	0.06326	0.06386	0.0718	0.06525	0.07005	0.0816	0.17044
953.161	0.07055	0.06474	0.06528	0.07337	0.06704	0.07149	0.08289	0.17223
953.704	0.07221	0.06598	0.06655	0.07498	0.06864	0.07306	0.08451	0.17346
954.247	0.07363	0.0672	0.06823	0.0768	0.07016	0.0745	0.08581	0.17467
954.79	0.07497	0.06857	0.06985	0.07806	0.07128	0.07577	0.08707	0.17601
955.332	0.0765	0.06974	0.07102	0.07932	0.07249	0.07688	0.08809	0.1771
955.875	0.07792	0.07135	0.07243	0.08094	0.07414	0.0784	0.08951	0.17817
956.417	0.07952	0.07312	0.07437	0.08304	0.07579	0.08001	0.0912	0.17953
956.96	0.08043	0.07445	0.07547	0.08426	0.07715	0.08134	0.09224	0.18045
957.502	0.08182	0.07594	0.07693	0.08601	0.07849	0.08269	0.09344	0.18157
958.044	0.08305	0.07736	0.0785	0.0874	0.07943	0.08379	0.09448	0.1825
958.587	0.08417	0.07852	0.07938	0.08858	0.08048	0.08461	0.09539	0.18375
959.129	0.08541	0.07965	0.08054	0.08993	0.08154	0.08591	0.09665	0.18477
959.671	0.0864	0.08057	0.08134	0.09061	0.08247	0.0867	0.09733	0.18571
960.213	0.08746	0.08143	0.08198	0.09121	0.08308	0.08727	0.09787	0.1867
960.755	0.08856	0.08249	0.08307	0.09209	0.08414	0.08817	0.09871	0.18757
961.297	0.08945	0.08337	0.08385	0.09308	0.0851	0.08893	0.09931	0.18836
961.839	0.09039	0.08474	0.08491	0.09387	0.08595	0.08969	0.10024	0.18899
962.381	0.09104	0.08554	0.08565	0.09472	0.08649	0.09011	0.10109	0.18938
962.923	0.09184	0.08637	0.08641	0.09555	0.08731	0.09115	0.10193	0.18995
963.465	0.09282	0.08716	0.08715	0.09661	0.08766	0.09188	0.10252	0.19061
964.006	0.09353	0.088	0.08807	0.09728	0.08827	0.09249	0.10331	0.191
964.548	0.09407	0.0886	0.08861	0.09779	0.08872	0.09294	0.10403	0.19111
965.089	0.09432	0.08919	0.08908	0.09844	0.08887	0.0932	0.10433	0.19112
965.631	0.09535	0.09022	0.08993	0.09913	0.08993	0.09388	0.10515	0.19169
966.173	0.09565	0.0908	0.09037	0.09968	0.09059	0.09434	0.10595	0.19181
966.714	0.09602	0.09149	0.09111	0.10035	0.09118	0.09501	0.10648	0.19244
967.255	0.09677	0.09199	0.09165	0.10063	0.09154	0.09564	0.10703	0.19337
967.797	0.09696	0.09253	0.09189	0.10058	0.09176	0.09585	0.10708	0.19341
968.338	0.09737	0.09275	0.09231	0.10083	0.09183	0.09612	0.10721	0.19343
968.879	0.09748	0.09292	0.0926	0.10093	0.09238	0.09626	0.10757	0.1936
969.42	0.09765	0.09321	0.09273	0.10127	0.09284	0.09669	0.10781	0.19388
969.961	0.09798	0.09328	0.09331	0.10158	0.09325	0.0971	0.10805	0.19403
970.502	0.09828	0.09364	0.09352	0.10164	0.09346	0.09717	0.1081	0.19392
971.043	0.09845	0.09396	0.094	0.10204	0.09394	0.09749	0.10835	0.19385
971.584	0.09858	0.09423	0.09445	0.1024	0.09413	0.098	0.1087	0.1937
972.125	0.09845	0.09433	0.0944	0.10268	0.094	0.098	0.10867	0.19365
972.666	0.09826	0.0943	0.09446	0.10289	0.09409	0.09791	0.10861	0.1934
973.207	0.09826	0.09439	0.09468	0.10301	0.09433	0.09822	0.10872	0.19353
973.747	0.0982	0.09437	0.09482	0.10293	0.09451	0.09852	0.10858	0.19368
974.288	0.09807	0.09423	0.09479	0.10282	0.0944	0.09815	0.10824	0.1932
974.829	0.09774	0.09404	0.09478	0.10249	0.09454	0.09792	0.10816	0.19288
975.369	0.09783	0.09402	0.09462	0.1027	0.09435	0.09792	0.10797	0.1926
975.91	0.0981	0.09405	0.09476	0.10287	0.09469	0.09804	0.10784	0.19288
976.45	0.09819	0.09381	0.0948	0.10257	0.09489	0.09816	0.10809	0.19323
976.99	0.09784	0.09349	0.09445	0.10235	0.09462	0.09792	0.10773	0.19307
977.531	0.09801	0.09352	0.09454	0.1024	0.09465	0.09807	0.10752	0.1933
978.071	0.09794	0.09345	0.09445	0.10216	0.09446	0.09756	0.10743	0.19299
978.611	0.09767	0.09323	0.09396	0.1021	0.09413	0.09729	0.10727	0.19218
979.151	0.09758	0.09279	0.09391	0.10195	0.09387	0.09721	0.10735	0.19211
979.691	0.09712	0.09249	0.09353	0.10163	0.09375	0.09704	0.10727	0.19202
980.231	0.09698	0.09248	0.09355	0.1016	0.09347	0.09699	0.10718	0.19222
980.771	0.09674	0.0921	0.09305	0.10135	0.09297	0.09664	0.10715	0.19187
981.311	0.09613	0.09183	0.09228	0.10099	0.09258	0.09633	0.10689	0.1914
981.851	0.09552	0.09146	0.09178	0.10034	0.09216	0.096	0.10666	0.19104
982.391	0.0953	0.09082	0.09131	0.09996	0.09158	0.09556	0.10661	0.19084
982.931	0.09511	0.09051	0.09098	0.0996	0.09131	0.09507	0.10658	0.19065
983.47	0.09499	0.09019	0.09091	0.09927	0.0911	0.09499	0.10659	0.19027
984.01	0.09473	0.09001	0.09076	0.09881	0.09079	0.09494	0.10651	0.19032
984.55	0.09439	0.08939	0.09013	0.09871	0.09033	0.09453	0.10631	0.18977
985.089	0.0942	0.08884	0.08985	0.09822	0.09004	0.09406	0.1059	0.1896
985.628	0.09404	0.08875	0.08936	0.09789	0.08984	0.09389	0.10565	0.1893
986.168	0.09377	0.08836	0.08904	0.09764	0.08956	0.09351	0.10541	0.18926
986.707	0.09301	0.0878	0.08835	0.09691	0.08888	0.09305	0.10499	0.18893
987.247	0.09247	0.08699	0.08784	0.09623	0.0881	0.09232	0.1045	0.18825
987.786	0.0923	0.08716	0.08745	0.09628	0.08765	0.09216	0.10414	0.18805
988.325	0.09186	0.08681	0.08724	0.09601	0.08716	0.0919	0.10394	0.18771
988.864	0.09123	0.08623	0.08623	0.0955	0.08645	0.09115	0.10338	0.18684
989.403	0.09082	0.08566	0.08579	0.09525	0.08598	0.09088	0.10279	0.18632
989.942	0.09037	0.08495	0.08542	0.09443	0.08535	0.09023	0.10227	0.18593
990.481	0.09011	0.08451	0.08487	0.09433	0.08504	0.08971	0.1017	0.18562
991.02	0.08982	0.08394	0.08456	0.0938	0.08443	0.08907	0.10124	0.18499
991.559	0.08952	0.08333	0.08387	0.09319	0.08377	0.08854	0.10056	0.18399
992.097	0.08918	0.08289	0.08392	0.09259	0.08333	0.08826	0.10015	0.18368
992.636	0.08891	0.08266	0.08383	0.09223	0.08298	0.08777	0.09967	0.18334
993.175	0.08856	0.08199	0.08362	0.09198	0.08251	0.08705	0.09917	0.18282
993.713	0.08789	0.08188	0.08294	0.09177	0.08211	0.08654	0.09856	0.18199
994.252	0.08701	0.08126	0.08259	0.09136	0.08177	0.08612	0.09745	0.18117
994.79	0.08666	0.08106	0.08196	0.09089	0.0812	0.08556	0.0969	0.1807
995.329	0.08876	0.07823	0.0798	0.08588	0.0775	0.08293	0.09852	0.17933
995.867	0.08962	0.07939	0.08397	0.09338	0.08223	0.08575	0.09564	0.18235
996.406	0.08214	0.07563	0.07729	0.08332	0.077	0.08098	0.09486	0.17389
996.944	0.08717	0.07865	0.08407	0.08897	0.07906	0.08592	0.09168	0.17451
997.482	0.08411	0.07786	0.08328	0.08862	0.07676	0.08864	0.09749	0.18007
998.02	0.08042	0.08061	0.08315	0.08847	0.08267	0.08184	0.09019	0.17796
998.558	0.08111	0.07359	0.07879	0.08608	0.07518	0.07641	0.09265	0.1712
999.096	0.08196	0.07913	0.07569	0.09018	0.08183	0.07794	0.09302	0.17305
999.634	0.07698	0.07648	0.0793	0.08797	0.07814	0.08413	0.08819	0.16828
1000.172	0.08402	0.07786	0.07863	0.0865	0.07707	0.08037	0.0925	0.18096
